FluorCam10 Kinetics Export File
-----------------------------------
[us]	[°C]	Area 1	Area 2	Area 3	Area 4	Area 5	Area 6	Area 7	Area 8	Area 9	Area 10	Area 11	Area 12	Area 13	Area 14	Area 15	Area 16	Area 17	Area 18	Area 19	Area 20	Area 21	Area 22	Area 23	Area 24	Area 25	Area 26	Area 27	Area 28	Area 29	Area 30	Area 31	Area 32	Area 33	Area 34	Area 35	Area 36	Area 37	Area 38	Area 39	Area 40	Area 41	Area 42	Area 43	Area 44
50000	34.98	793.975	814.55	838.99	868.672	866.901	894.302	814.778	773.564	789.524	865.042	1097.052	849.002	892.086	940.575	1000.327	798.376	792.072	769.726	892.589	889.864	1247.052	1037.084	765.431	741.569	751.216	829.21	921.329	1082.039	972.951	886.924	814.086	797.443	750.919	907.456	768.809	773.536	773.568	777.084	763.52	735.79	807.314	771.715	821.232	757.434
150000	34.98	573.475	541.811	559.751	731.174	678.479	744.396	563.197	562.831	541.776	716.312	1014.411	637.296	675.556	744.763	836.449	616.346	553.483	560.398	783.964	732.235	1092.364	814.277	568.986	393.523	487.603	534.024	757.516	941.954	798.478	726.57	631.753	521.983	483.095	722.553	545.195	541.214	560.158	463.583	529.854	456.457	567.607	542.039	542.244	476.763
30050000	34.98	488.83	432.384	493.337	641.777	487.386	587.87	464.389	448.748	506.413	605.489	791.653	577.759	606.219	607.509	686.546	499.142	443.603	552.233	666.036	684.075	834.666	675.369	499.633	374.509	473.156	519.646	608.829	793.941	634.173	576.15	534.143	482.97	480.133	610.723	544.476	594.877	495.377	456.429	453.8	411.406	435.96	478.187	501.072	460.863
30150000	34.98	515.111	424.668	521.667	626.803	504.924	620.118	508.192	436.609	500.052	529.638	799.351	580.915	591.131	606.436	678.991	542.1	463.965	521.456	667.172	646.591	872.244	710.075	524.718	465.205	483.638	507.381	625.996	803.84	650.815	573.542	565.264	493.474	525.679	643.894	561.951	563.699	476.52	439.492	464.499	397.311	492.752	482.779	493.998	488.854
60050000	34.98	452.887	438.605	467.479	613.941	516.335	589.622	513.536	419.443	463.067	537.981	758.83	526.26	545.863	583.239	629.21	447.282	425.474	525.846	621.75	638.589	789.082	664.497	469.672	394.949	422.705	494.255	622.315	755.556	602.26	563.441	544.532	510.754	468.012	607.289	544.311	566.428	510.73	404.293	426.206	358.298	442.49	485.231	483.233	455.237
60150000	34.99	477.24	461.292	475.718	626.406	513.688	549.029	455.613	422.229	442.215	541.625	725.782	555.017	531.511	570.981	669.019	451.873	456.963	512.869	594.294	619.344	785.263	636.8	459.103	398.439	422.674	450.99	602.302	788.131	658.585	559.523	534.562	491.002	481.95	588.825	548.294	567.943	458.307	407.642	440.8	365.504	480.369	469.785	431.174	448.537
90050000	35.02	447.62	426.765	512.625	578.08	564.174	596.548	469.9	414.218	422.413	502.814	717.55	472.211	559.678	519.795	663.037	450.652	432.068	501.572	628.973	645.096	817.481	645.089	446.485	366.167	447.475	448.283	613.784	775.114	594.26	575.924	496.137	493.6	477.805	533.773	570.781	570.095	433.969	390.738	423.415	347.726	478.934	469.906	444.348	459.961
90150000	35.02	485.752	444.527	503.94	574.148	542.413	612.345	490.902	448.115	430.535	536.134	718.99	528.812	547.622	596.488	635.242	454.909	417.511	495.261	610.682	633.413	810.24	673.135	432.692	346.927	429.955	484.682	579.302	746.034	603.723	521.824	495.429	477.202	474.917	596.505	537.369	529.383	452.526	405.728	402.879	377.112	449.214	447.427	439.539	462.007
120050000	34.99	461.263	450.153	475.759	582.655	551.514	543.886	475.017	445.099	446.691	525.67	725.225	518.51	565.333	617.89	633.509	460.69	417.238	544.876	613.399	626.608	827.44	630.82	457.321	352.234	439.717	488.648	616.795	747.99	616.862	564.525	483.744	468.383	446.395	568.49	550.195	555.203	437.761	410.347	406.32	354.034	437.132	445.692	473.201	499.332
120150000	34.99	417.218	431.336	454.243	590.089	540.961	575.548	462.235	471.047	404.702	528.948	689.56	519.802	531.534	576.021	625.502	470.645	429.212	493.645	625.887	653.271	848.407	680.504	506.089	348.984	445.045	433.57	549.126	790.552	593.339	547.231	467.335	497.126	471.002	586.486	508.68	540.525	438.829	420.068	409.45	349.198	476.459	496.616	468.725	481.08
150050000	35.5	425.664	424.916	454	572.343	561.155	555.123	440.932	421.16	434.709	538.322	748.665	521.646	560.647	584.311	632.746	497.036	400.271	509.313	608.727	676.403	839.076	626.085	470.838	384.943	423.397	491.578	569.18	781.766	598.386	536.534	496.139	456.887	439.976	597.503	536.388	557.947	472.228	387.766	401.791	356.733	453.522	467.865	481.874	431.617
150150000	35.5	443.824	427.174	465.37	603.796	535.107	578.891	473.662	462.351	382.687	518.879	721.888	558.734	558.917	555.949	619.624	466.244	433.681	480.021	599.382	641.151	839.244	663.132	448.731	368.889	390.712	433.98	597.576	776.324	632.761	550.83	510.409	454.37	481.471	557.814	530.264	590.839	436.618	433.93	420.223	343.11	469.423	492.169	476.492	461.007
180050000	35.99	475.979	454.498	447.284	566.282	502.227	601.687	455.543	451.831	479.243	536.193	710.144	539.51	530.137	565.49	622.136	458.27	416.983	559.113	670.364	653.044	867.353	667.022	461.975	359.995	410.837	465.515	557.799	736.84	650.054	522.922	487.616	513.446	457.338	594.635	550.127	572.595	472.136	420.311	401.652	367.413	485.631	497.037	491.67	514.834
180150000	35.99	434.613	430.185	466.177	595.592	532.126	561.418	453.919	415.942	451.233	555.732	720.093	475.75	539.529	574.693	674.924	464.631	423.876	510.876	614.043	662.65	812.421	632.25	451.663	374.52	422.324	441.006	565.38	770.792	584.672	583.924	515.652	437.922	466.021	556.227	593.084	569.589	434.274	398.934	431.049	372.103	442.45	467.228	463.862	460.202
210050000	36.48	444.183	451.183	452.986	562.505	553.818	586.387	455.184	424.335	420.767	569.216	685.632	510.753	538.935	601.23	659.42	445.873	385.382	532.113	622.891	653.816	823.566	632.149	478.67	376.119	392.422	491.578	558.004	764.461	607.965	523.189	482.978	456.615	472.545	604.76	547.957	574.915	484.235	418.279	435.527	401.792	450.926	489.411	457.542	490.88
210150000	36.49	458.082	444.456	472.84	601.557	526.494	613.47	439.229	439.629	434.18	524.814	730.105	524.505	537.554	572.104	616.809	480.304	423.59	551.118	616.255	621.006	827.668	628.795	468.966	388.717	403.219	452.043	558.406	793.319	585.895	553.151	540.352	487.67	477.383	596.009	573.785	538.282	434.05	388.48	424.369	367.056	457.919	498.966	479.844	501.507
240050000	36.98	450.876	491.027	481.708	556.705	574.12	610.967	450.782	423.942	469.917	537.41	723.117	532.637	561.55	612.56	690.108	462.858	454.5	534.36	640.517	649.818	862.59	618.335	452.298	347.407	398.384	468.32	577.831	800.248	598.386	555.614	498.335	469.88	473.871	556.743	543.264	545.047	520.281	463.562	424.858	388.108	465.843	490.384	497.097	451.402
240150000	36.98	459.017	423.567	476.881	562.928	557.727	538.736	426.447	449.079	440.841	528.686	707.727	522.168	562.725	607.696	633.629	423.582	447.323	520.278	626.851	642.931	820.456	630.923	434.535	341.693	426.859	456.287	547.878	770.67	652.923	560.545	525.765	479.457	460.202	598.693	561.674	564.612	439.787	422.696	392.898	351.311	452.783	470.306	488.682	457.368
270050000	37.5	491.464	453.559	477.385	574.477	538.576	557.326	485.415	429.074	405.878	512.452	705.091	467.883	583.982	606.594	672.039	474.8	419.932	515.961	617.526	620.474	816.277	659.212	454.777	384.159	411.518	513.864	553.786	800.116	601.536	559.824	547.838	465.817	449.181	612.989	570.206	590.655	475.967	445.799	420.264	378.44	464.66	428.475	465.639	503.851
270150000	37.5	468.393	431.45	471.212	558.239	522.804	556.656	434.47	423.681	466.828	533.065	739.388	542.064	565.297	574.953	668.636	441.715	414.114	528.578	604.348	607.159	808.68	643.073	421.952	401.836	406.913	450.774	571.167	797.693	625.625	521.03	507.879	472.037	450.693	565.756	547.288	565.356	392.445	423.843	442.513	376.098	487.671	457.879	448.948	509.834
300050000	38.01	404.317	427.792	456.123	520.093	547.419	641.058	453.344	436.483	444.335	522.682	696.474	516.367	507.505	590.495	667.087	484.584	450.52	554.298	598.797	662.809	823.215	625.533	444.371	370.687	417.6	476.128	562.412	815.252	618.798	539.485	512.841	507.278	463.295	615.315	575.524	550.083	491.98	431.183	422.963	365.359	461.966	478.527	495.65	499.673
300150000	38.01	439.681	420.237	478.601	586.278	572.124	601.586	456.038	446.587	435.126	517.243	699.72	530.164	547.076	554.142	695.892	445.962	438.402	534.077	621.495	657.598	848.527	634.142	455.159	360.631	440.237	464.866	582.912	745.663	607.098	566.286	496.706	502.093	472.693	577.123	563.929	546.578	529.02	422.738	422.074	376.939	458.554	494.689	492.264	454.1
330050000	38.52	414.729	463.891	445.938	553.211	543.151	558.76	478.69	413.297	455.291	509.192	755.022	540.32	589.318	604.459	693.587	479.599	404.026	492.088	660.596	662.518	811.774	659.54	506.212	392.472	432.812	459.118	577.333	810.995	638.23	580.854	532.791	473.328	472.138	611.331	588.682	562.451	505.219	448.323	426.026	365.804	480.824	463.537	493.26	486.69
330150000	38.52	474.452	472.044	494.372	563.109	575.816	602.177	457.115	433.715	450.28	519.996	755.833	541.832	533.862	576.482	701.168	476.928	421.426	522.636	618.594	640.954	825.782	680.506	443.116	399.28	454.531	482.802	575.167	772.987	664.618	517.384	557.742	494.133	464.148	608.784	558.597	558.394	510.855	435.44	408.142	358.905	450.35	476.386	460.242	486.824
360050000	39.02	455.181	478.645	464.473	608.848	556.607	602.796	465.265	435.058	437.761	541.435	736.723	517.226	552.942	569.309	681.815	427.921	447.197	558.139	640.898	641.667	814.877	645.328	459.542	401.051	417.487	461.171	585.942	804.987	621.319	548.297	547.09	509.154	461.348	617.721	528.073	562.657	505.741	468.276	428.362	409.438	498.372	467.959	484.492	503.207
360150000	39.02	455.882	482.116	441.01	596.21	558.541	583.434	434.079	452.103	424.317	531.644	753.404	542.972	609.761	607.235	735.011	457.69	403.081	542.846	649.4	626.813	832.79	667.733	469.815	376.96	437.712	473.432	567.412	766.466	605.213	559.756	565.937	489.067	456.65	618.531	560.296	585.716	490.895	466.592	449.381	357.037	466.667	504.13	458.402	513.512
390050000	39.51	431.349	491.37	479.2	578.186	595.696	607.893	450.874	441.472	440.783	544.22	719.806	504.46	615.63	602.381	733.64	498.127	425.148	523.411	633.589	641.654	832.565	635.995	428.733	377.86	453.942	500.807	576.968	800.57	678.131	577.331	544.399	508.902	473.1	608.983	563.854	606.072	485.5	403.431	429.503	405.007	421.015	493.758	468.298	497.044
390150000	39.51	422.779	475.286	466.77	582.237	544.211	566.533	457.759	411.492	439.415	545.201	725.739	553.139	557.554	577.97	692.917	441.142	428.072	558.593	620.867	673.346	833.185	618.566	455.973	355.954	435.455	441.104	591.772	779.405	638.649	596.36	555.513	468.43	492.25	579.741	571.53	596.225	486.23	451.543	413.028	350.543	441.015	497.5	477.928	500.395
420050000	40.06	463.74	459.616	495.179	579.39	545.866	564.535	440.703	447.099	386.598	539.201	731.418	540.729	600.549	593.279	714.696	467.938	457.297	530.178	637.303	603.801	855.592	631.928	463.226	391.213	436.248	444.424	596.844	771.358	664.571	553.176	565.816	436.922	453.943	647.652	578.167	592.021	483.458	440.595	398.093	366.421	466.416	444.16	480.521	512.161
420150000	40.06	458.317	439.181	468.924	576.182	544.329	555.568	445.408	436.571	430.459	519.914	706.323	515.311	582.946	611.934	703.528	455.662	464.033	560.544	627.797	646.096	803.187	658.966	457.187	402.588	431.154	473.721	554.862	758.268	661.126	523.358	554.851	486.963	473.748	589.691	573.912	555.941	487.035	430.518	410.1	358.797	449.981	500.932	497.937	475.376
450050000	40.54	462.91	524.851	450.605	578.922	521.634	582.452	474.667	464.874	448.176	518.812	760.026	539.207	596.09	597.361	715.595	500.459	462.498	555.188	626.978	630.04	860.464	654.138	471.043	392.609	431.853	481.76	565.597	780.944	662.012	545.515	547.883	511.174	495.664	631.808	527.88	504.25	488.007	472.052	429.624	395.225	479.554	495.135	467.655	495.129
450150000	40.54	479.513	473.737	498.967	539.61	532.543	638.217	417.391	407.838	432.609	547.307	716.734	522.661	583.21	630.964	736.166	467.796	467.199	538.42	616.461	648.247	821.633	652.709	458.654	371.827	434.261	510.998	584.498	771.297	679.803	544.574	543.896	501.239	530.024	618.501	623.376	575.523	504.842	469.382	405.097	393.65	502.025	434.952	501.21	497.251
480050000	41.04	477.475	482.723	464.572	620.596	570.686	625.512	441.068	394.187	478.383	542.494	733.607	550.672	585.75	655.803	744.947	443.412	435.19	527.835	631.858	619.57	809.726	642.927	444.298	393.423	426.348	470.269	599.797	778.051	635.85	520.553	559.523	498.283	493.95	619.125	524.899	564.65	480.546	440.696	389.432	392.445	484.541	509.813	468.641	473.127
480150000	41.04	443.225	453.496	478.344	541.963	555.273	635.251	436.44	416.742	470.674	549.161	703.373	580.731	587.899	616.302	743.168	466.289	435.116	541.672	641.616	655.761	811.802	676.687	433.396	380.846	429.6	511.548	595.081	756.27	653.803	555.674	587.35	503.789	470.269	622.825	558.674	545.216	533.739	446.813	414.882	358.335	501.828	504.941	498.722	505.28
510050000	41.51	449.065	430.233	505.154	573.109	518.657	624.859	443.737	434.299	419.461	560.034	733.311	518.497	600.919	590.023	748.449	449.272	406.576	569.713	656.341	682.818	862.589	661.79	481.743	405.14	464.344	479.894	563.653	805.712	682.618	564.953	595.89	520.263	479.31	664.318	581.903	566.049	494.533	441.794	454.928	376.271	488.484	527.233	502.169	556.563
510150000	41.52	460.483	522.015	493.792	608.462	585.591	641.996	495.861	422.434	447.398	524.793	766.191	547.923	593.887	606.286	751.041	511.057	476.282	563.694	606.677	648.998	860.269	661.487	490.153	400.089	461.862	474.114	584.383	772.958	633.171	572.818	553.984	496.909	498.971	659.551	564.202	518.636	491.465	437.293	431.513	383.289	472.382	528.966	543.485	494.949
540050000	42.04	439.916	474.773	499.868	651.187	579.641	617.074	470.028	451.813	440.583	540.481	734.871	527.755	619.849	630.311	760.502	497.132	463.797	559.101	600.838	671.214	808.997	644.209	509.264	372.022	458.743	490.204	641.252	800.77	662.431	571.447	549.266	503.241	482.295	655.49	525.846	630.004	497.309	462.187	424.947	395.112	494.977	525.619	484.368	496.976
540150000	42.05	452.353	497.55	506.245	614.2	576.87	631.175	470.306	421.252	436.257	563.153	729.419	531.748	581.592	603.717	776.601	497.149	451.561	551.837	630.163	663.025	830.37	663.899	449.465	346.962	447.924	457.727	607.604	791.06	687.646	577.992	567.344	497.804	461.524	672.479	608.903	552.945	490.719	464.246	428.032	415.489	493.845	495.025	520.641	543.41
570050000	42.56	468.971	495.494	492.504	599.777	560.556	606.145	501.259	391.861	436.561	544.193	737.43	577.601	597.818	637.666	805.685	484.437	465.59	574.801	623.564	688.008	864.383	656.515	491.61	375.857	442.978	530.328	595.592	795.172	677.056	550.718	574.082	544.787	441.529	648.004	618.886	579.176	499.412	450.843	393.856	373.665	497.97	468.927	466.036	507.893
570150000	42.56	513.281	504.693	492.165	583.872	591.26	594.655	509.536	435.71	462.859	571.812	742.065	499.444	620.924	600.712	764.06	451.108	442.67	555.897	625.704	667.837	812.524	663.393	463.21	386.41	433.212	476.87	570.02	794.356	674.735	566.852	545.892	486.207	481.843	673.024	571.27	563.939	466.954	412.012	418.392	382.225	505.992	522.078	502.077	514.19
600050000	43.04	445.311	448.567	499.78	639.197	555.857	666.456	487.299	446.112	451.998	529.489	732.048	533.486	703.106	664.691	766.452	453.834	488.886	559.619	657.98	703.384	825.052	658.561	517.651	430.097	448.386	503.623	600.049	805.309	731.154	568.655	586.64	540.28	496.688	649.013	596.18	587.388	485.901	466.796	438.708	395.296	461.382	509.767	542.196	530.759
600150000	43.04	447.775	512.466	486.516	576.154	536.308	610.646	440.06	419.49	440.411	554.659	719.636	535.695	588.683	676.474	775.435	474.268	452.862	559.966	631.126	703.363	849.797	626.446	477.189	339.73	478.779	505.387	608.014	805.783	700.496	609.858	546.736	498.396	467.043	631.473	577.056	563.568	580.311	447.801	415.466	377.46	467.783	483.749	524.488	535.685
630050000	43.56	457.418	478.882	474.523	584.406	559.659	618.875	441.596	437.766	453.124	506.73	732.911	514.638	667.95	704.51	786.903	506.667	442.094	558.767	625.395	683.157	841.142	633.571	484.326	359.202	443.815	510.558	592.326	803.827	685.293	559.197	585.143	527.174	455.545	674.745	568.333	556.03	520.121	474.717	436.817	421.127	486.021	509.982	535.666	550.749
630150000	43.56	438.88	490.83	551.383	608.696	567.182	682.349	475.692	438.427	412.73	556.81	730.017	545.554	719.933	666.753	765.521	446.813	499.616	526.452	659.282	631.428	829.443	625.641	462.392	381.776	474.536	504.354	606.818	778.461	689.342	550.146	562.262	517.004	467.91	676.196	572.004	555.157	528.342	483.97	417.225	382.841	485.535	523.151	532.375	562.793
660050000	44.07	459.834	441.468	457.296	589.423	551	630.651	472.912	439.153	469.22	549.301	753.916	567.791	741.38	708.778	746.781	501.766	475.559	608.308	650.291	651.231	805.81	651.166	418.872	375.348	493.529	495.273	601.383	788.485	660.223	579.523	588.452	541.802	522.919	707.061	593.873	595.661	536.45	460.012	416.439	395.719	458.82	489.315	543.982	539.868
660150000	44.07	467.498	466.676	529.724	622.388	586.636	626.298	481.91	409.398	444.648	551.391	752.801	520.32	677.5	706.875	771.35	495.641	501.585	550.79	686.278	655.969	811.267	648.612	456.159	371.097	512.645	508.976	616.653	815.917	678.913	547.104	624.571	526.539	450.636	658.233	530.403	606.047	506.919	463.576	408.016	378.733	497.478	508.664	500.968	547.502
690050000	44.56	464.279	480.828	489.531	641.163	560.915	645.099	501.19	443.467	467.172	547.81	738.899	540.702	711.709	738.224	746.048	507.416	484.55	592.328	659.332	722.109	837.103	664.316	481.21	390.27	448.353	514.576	627.496	786.889	747.869	558.943	632.358	539.08	510.388	678.924	531.444	587.75	540.307	474.963	427.49	447.814	513.747	479.171	529.537	541.095
690150000	44.56	468.225	461.458	457.319	563.614	568.727	629.251	448.269	404.24	433.667	532.132	742.321	563.356	697.664	677.892	792.883	499.518	444.41	544.445	628.501	686.818	783.744	622.947	452.722	360.264	446.107	535.697	626.104	780.562	710.572	574.42	579.603	527.198	523.1	700.099	581.395	605.322	509.787	447.738	451.371	400.279	482.019	495.932	576.359	544.524
720050000	45.09	444.151	463.945	493.36	567.072	605.027	624.98	456.585	413.562	421.211	505.268	692.452	570.695	734.43	766.837	777.269	477.469	452.275	557.122	670.28	723.671	856.457	711.75	497.56	371.431	488.846	531.998	650.737	795.159	680.592	531.956	610.147	550.861	505.943	662.652	579.251	552.165	520.772	457.443	393.081	400.724	502.268	518.687	567.372	561.261
720150000	45.09	461.796	508.926	500.566	605.506	575.558	635.206	485.927	426.809	457.578	565.91	754.131	554.049	740.496	711.33	780.443	489.675	501.644	542.173	709.952	712.782	845.244	698.19	463.221	422.518	505.694	526.955	654.13	839.48	748.044	540.773	606.624	549.024	552.912	691.968	560.071	571.932	557.542	454.276	431.334	388.337	476.809	537.217	551.264	606.683
750050000	45.59	449.361	517.519	508.537	602.729	589.217	684.579	445.6	445.627	485.611	541.544	767.088	541.97	779.853	754.647	814.191	542.887	463.365	615.27	727.163	750.337	824.074	671.927	441.476	432.965	503.565	510.251	623.628	815.959	709.445	583.587	614.513	562.13	513.798	717.024	586.62	553.375	515.743	471.054	430.244	373.758	530.229	544.249	568.772	583.51
750150000	45.59	487.887	492.334	494.885	569.922	614.424	635.975	497.248	382.072	407.991	514.138	704.356	603.932	752.683	743.125	770.532	494.584	508.229	574.803	666.447	779.983	818.28	619.015	475.683	414.854	454.462	503.705	622.362	778.964	714.171	593.405	542.235	551.296	568.74	698.814	584.032	563.875	522.897	465.522	456.919	393.934	500.824	486.473	541.801	534.034
780050000	46.1	464.811	466.265	504.942	666.347	623.775	679.038	487.855	456.479	410.58	539.761	729.442	532.8	760.388	780.467	751.019	431.9	484.332	587.732	713.747	768.01	859.631	696.583	496.371	375.615	489.042	501.523	648.502	799.487	731.297	559.472	608.591	528.23	573.781	684.428	570.7	547.169	576.649	440.297	457.993	415.65	527.176	509.824	519.052	550.61
780150000	46.1	500.384	512.571	487.502	641.468	615.376	699.269	476.605	462.715	452.198	563.308	766.333	596.249	806.115	802.433	836.989	481.643	446.301	600.728	700.314	750.402	808.503	680.178	485.057	365.256	524.252	515.271	639.975	821.727	784.654	563.534	602.147	576.022	561.445	731.11	593.788	559.578	550.515	467.103	439.499	399.548	544.51	534.126	579.589	615.907
810050000	46.58	456.517	504.023	516.537	596.278	593.769	657.336	513.844	463.6	463.328	556.079	793.364	600.881	778.401	840.068	804.246	501.813	473.904	614.784	749.494	794.696	875.69	687.108	519.95	428.243	485.859	518.088	680.022	839.879	743.918	594.864	652.045	559.426	604.345	741.855	574.925	547.769	555.822	496.316	437.974	438.232	529.851	555.071	583.783	605.727
810150000	46.59	497.981	504.706	558.377	607.104	605.762	678.705	540.611	485.44	426.687	561.046	754.435	566.22	794.074	799.877	807.097	544.344	466.046	625.103	708.707	753.182	874.421	724.385	460.49	400.574	498.375	572.159	674.282	852.364	743.106	594.589	606.834	542.039	568.162	689.404	555.674	520.4	505.546	490.073	438.896	393.553	519.592	529.632	560.284	597.512
840050000	47.1	455.693	519.752	501.728	640.558	594.395	662.523	473.882	446.584	460.667	546.943	733.845	557.872	799.04	809.541	813.599	486.643	490.609	632.846	766.002	769.576	848.744	677.217	516.576	478.623	489.683	535.78	702.223	831.665	767.211	579.335	624.562	568.448	597.269	763.557	605.616	573.589	548.776	484.845	448.267	451.922	530.635	490.486	547.975	596.622
840150000	47.1	518.679	529.824	486.813	624.176	618.655	651.861	489.897	445.195	457.396	542.686	793.73	566.974	858.101	813.831	807.622	534.754	489.035	611.839	735.115	808.692	872.546	729.94	516.788	426.674	489.395	562.982	669.171	856.368	789.281	603.169	641.875	569.409	571.467	797.162	596.348	568.595	621.007	500.253	426.64	455.1	540.79	546.361	586.982	599.137
870050000	47.57	500.279	523.076	555.261	618.059	645.467	723.685	514.91	493.751	412.759	538.55	807.218	587.638	849.392	856.877	800.306	508.881	467.485	629.165	807.487	857.73	883.975	723.484	521.155	424.652	507.089	513.513	693.392	859.278	783.592	618.028	667.92	647.004	642.564	795.434	577.107	613.617	582.952	501.726	486.144	463.416	553.471	578.078	609.095	626.573
870150000	47.57	513.897	514.315	512.475	657.377	619.936	700.427	475.626	478.42	396.32	586.326	749.753	594.241	793.962	821.484	837.551	541.291	467.282	605.002	801.133	847.155	869.381	720.236	487.374	433.817	531.52	568.939	715.2	854.585	727.354	605.854	687.793	595.872	646.474	745.434	592.691	598.25	592.811	536.393	462.053	445.061	531.282	542.007	566.912	642.41
900050000	48.09	503.025	547.469	564.44	629.056	680.316	683.996	473.299	471.097	459.991	575.908	783.567	643.407	852.248	882.581	861.979	520.142	508.207	604.625	823.829	867.891	948.846	769.986	536.754	418.65	542.696	577.358	768.322	884.232	790.791	623.807	683.256	620.111	689.59	817.648	615.85	606.034	598.48	549.262	469.912	455.399	577.149	553.564	626.102	692.839
900150000	48.09	538.817	501.359	545.71	643.519	639.936	750.24	482.656	460.733	462.78	548.598	791.809	591.209	869.209	848.116	816.769	537.034	503.88	601.921	830.031	904.983	954.226	785.74	518.383	393.62	519.071	566.065	744.939	866.758	821.785	571.396	710.961	655.365	652.141	827.058	645.135	568.761	600.829	516.143	492.016	446.269	565.119	573.203	539.962	623.02
930050000	48.63	580.84	573.83	578.79	687.673	621.31	731.92	539.643	515.719	462.233	573.437	836.613	632.143	911.149	931.518	885.633	531.575	484.367	636.713	831.452	958.809	937.354	846.226	568.743	462.466	587.212	648.925	753.448	916.954	861.183	576.831	762.877	664.215	679.617	848.322	636.839	583.617	658.489	606.344	503.181	467.276	604.431	599.573	584.42	669.846
930150000	48.63	536.954	562.964	518.01	679.15	611.134	715.98	529.278	487.002	435.4	598.117	790.38	616.258	870.016	895.658	832.829	523.981	491.044	629.428	831.334	910.608	930.859	791.031	555.319	398.741	525.284	573.607	766.912	878.194	828.984	623.045	726.932	644.272	686.329	842.169	579.73	642.839	617.544	586.513	474.845	446.755	608.253	554.016	588.704	657
960050000	49.14	550.298	575.84	578.381	697.378	644.391	751.835	529.079	472.052	471.593	633.521	832.194	603.539	953.272	959.803	880.012	529.395	552.493	653.722	912.469	920.344	1044.788	852.161	578.093	455.798	543.922	666.511	803.475	887.995	844.152	662.951	755.172	686.513	720.514	909.074	600.848	615.659	647.882	605.208	505.408	450.408	621.875	579.69	637.986	709.066
960150000	49.14	579.053	595.729	556.8	699.072	705.7	778.28	506.457	503.488	485.82	618.347	813.649	651.301	968.011	924.207	878.866	524.535	520.59	649.809	877.891	985.484	975.907	815.118	613.544	443.887	559.438	639.591	829.198	936.454	878.517	636.856	759.376	671.028	732.74	914.771	623.65	576.208	656.66	606.717	493.336	497.169	637.242	555.276	597.625	659.593
990050000	49.62	568.431	614.79	586.27	717.525	672.027	824.231	526.613	577.881	521.511	648.785	843.83	693.168	978.489	1024.82	920.852	593.66	520.69	671.011	932.144	1044.482	1105.457	863.974	604.761	488.865	575.33	646.157	848.002	948.163	898.77	668.123	822.648	715.198	738.236	922.082	581.745	639.025	663.759	608.513	507.531	516.775	641.48	647.626	667.675	674.38
990150000	49.62	562.637	586.51	578.479	725.57	700.63	869.888	521.938	557.899	501.604	642.215	845.328	672.482	966.41	1009.968	899.564	608.246	498.736	669.833	877.118	1069.054	1044.223	873.024	575.929	527.302	612.513	697.057	847.829	926.587	871.347	663.494	833.274	722.922	731.712	919.899	655.163	592.254	651.287	631.037	535.462	520.012	627.709	589.454	639.332	652.932
1020050000	50.1	584.187	612.38	608.101	778.813	711.141	863.835	591.506	582.081	499.209	633.927	921.089	699.282	1074.998	1035.49	992.627	594.953	525.266	697.013	924.25	1041.87	1099.527	901.957	592.626	470.814	649.038	707.499	861.54	996.729	955.761	715.852	885.761	754.074	827.652	957.531	663.253	660.803	691.41	618.412	557.947	490.589	665.779	610.041	684.476	686.888
1020150000	50.11	559.653	625.038	583.558	780.653	738.076	855.933	544.139	552.088	557.85	656.703	831.82	721.8	1078.876	1051.698	962.883	609.679	506.701	683.285	949.336	1100.813	1123.497	929.335	634.481	519.458	643.973	654.332	893.689	1026.211	949.208	691.951	862.209	820.835	860.321	1043.434	616.996	641.631	706.053	647.628	529.086	510.985	657.614	599.463	687.413	712.551
1050050000	50.63	606.71	629.09	606.975	837.597	737.99	871.738	575.113	606.369	547.548	704.262	909.378	750.13	1127.049	1183.676	1027.025	690.83	528.675	743.362	1033.987	1116.222	1159.983	1005.727	710.795	536.547	636.306	698.695	990.295	1064.637	1044.499	744.244	872.568	810.161	861.924	1056.047	709.137	644.239	736.998	681.07	574.053	491.391	680.251	602.158	667.327	791.219
1050150000	50.63	565.956	634.527	624.397	806.004	740.62	911.884	592.192	594.375	551.424	735.134	921.725	738.051	1123.225	1143.389	1035.438	657.985	549.795	757.026	1050.876	1170.446	1174.345	955.275	724.993	585.663	687.502	679.473	926.799	1024.458	1010.471	734.375	900.26	862.696	853.186	1047.242	642.931	666.489	761.711	703.354	565.332	507.296	675.885	660.706	675.158	788.478
1080050000	51.11	633.971	681.447	654.381	868.082	764.816	1002.181	620.419	649.135	572.713	731.069	929.844	759.957	1227.642	1157.459	1036.754	630.44	606.114	831.818	1078.167	1187.797	1255.953	967.638	746.841	591.348	739.705	729.656	1030.131	1115.013	1137.616	814.517	942.061	895.237	912.012	1103.393	713.609	675.511	784.511	690.536	574.387	547.804	672.705	690.313	686.959	759.654
1080150000	51.11	631.212	656.095	651.689	848.191	807.64	948.418	590.645	672.245	542.211	709.251	953.024	775.623	1192.164	1203.355	1074.272	702.972	609.585	840.638	1062.984	1223.656	1204.003	1053.203	731.784	535.089	688.766	721.527	980.761	1127.09	1095.398	828.413	963.102	863.224	898.529	1105.33	686.712	698.165	765.064	721.026	587.251	512.68	671.272	737.29	683.765	793.688
1110050000	51.67	672.317	681.166	719.154	920.978	873.924	1019.477	684.759	664.692	604.406	785.579	986.275	811.54	1186.336	1239.378	1163.788	706.106	575.679	899.79	1074.891	1204.811	1310.405	1149.598	844.36	617.863	717.498	776.595	1099.714	1168.137	1205.447	910.47	1034.068	949.111	964.336	1127.462	683.067	756.82	757.377	747.78	628.158	517.572	698.032	681.662	732.835	766.51
1110150000	51.67	696.29	706.155	708.512	905.707	817.471	1021.45	627.241	674.245	562.089	740.308	991.967	799.542	1267.374	1276.712	1113.074	750.45	635.358	844.773	1106.345	1322.572	1318.081	1073.422	840.943	642.437	718.692	721.35	1091.333	1192.556	1222.017	860.517	1011.029	974.028	947.49	1100.795	719.32	751.809	807.678	735.389	640.135	538.465	705.977	681.897	743.257	781.646
1140050000	52.14	724.418	785.685	740.228	917.204	901.329	1096.651	690.235	723.465	616.004	789.874	1076.88	839.055	1230.05	1352.884	1164.691	782.552	674.749	906.949	1148.583	1274.285	1402.03	1186.971	789	689.491	744.868	763.029	1160.829	1310.639	1316.351	898.769	971.918	965.267	1001.479	1111.378	826.959	788.127	811.434	728.335	611.037	594.181	692.021	766.011	715.675	849.424
1140150000	52.14	670.084	723.553	721.977	942.306	850.089	1045.937	673.688	692.243	600.733	779.793	1115.215	821.535	1259.766	1347.989	1193.339	747.45	654.079	930.274	1160.465	1307.161	1439.168	1117.485	817.843	632.477	773.795	783.611	1092.606	1283.825	1285.051	930.877	999.317	995.937	993.4	1133.495	767.208	768.174	799.401	722.967	623.114	546.242	672.446	761.132	715.889	866.873
1170050000	52.61	680.405	815.538	826.302	983.529	926.283	1105.396	760.904	750.013	613.267	838.404	1160.125	888.853	1273.878	1402.871	1187.426	798.66	666.118	1013.201	1185.686	1307.308	1535.568	1185.703	837.736	707.41	772.109	782.544	1138.475	1403.84	1334.225	991.263	1021.908	1044.043	1009.969	1179.847	824.491	826.521	753.456	758.998	657.845	593.279	728.335	752.514	752.384	856.876
1170150000	52.61	729.292	816.279	770.097	977.18	960.744	1074.508	720.346	752.22	644.348	827.816	1130.503	853.316	1262.439	1389.751	1180.207	791.87	688.825	946.415	1197.147	1350.191	1532.222	1184.723	868.178	758.423	764.062	809.623	1135.354	1392.394	1346.093	960.509	966.971	1056.202	1000.06	1149.05	857.946	744.254	839.691	719.417	640.209	582.125	633.155	817.148	776.74	816.295
1200050000	53.15	724.309	865.857	835.208	995.289	998.149	1079.783	833.312	825.47	667.474	850.728	1143.885	868.401	1250.248	1334.503	1195.519	786.533	675.21	973.225	1300.51	1359.233	1630.641	1200.769	845.016	690.232	771.065	815.994	1132.883	1440.881	1400.009	1066.699	973.568	1040.161	1010.674	1149.814	926.29	868.841	746.092	717.29	670.148	595.89	745.427	779.648	816.512	837.556
1200150000	53.15	747.393	837.502	811.105	1010.72	976.203	1084.537	800.716	782.888	668.191	849.423	1209.182	925.618	1231.969	1388.364	1226.037	761.414	716.59	959.437	1221.109	1386.78	1609.799	1221.631	909.736	713.447	780.025	828.206	1134.996	1373.271	1431.047	1093.358	984.166	1033.904	1107.44	1198.693	870.204	840.1	752.182	742.766	672.278	566.667	707.809	776.116	807.56	842.117
1230050000	53.67	767.132	876.649	870.623	1073.904	1056.775	1160.832	888.521	829.584	659.3	918.439	1312.723	941.132	1239.849	1380.987	1227.781	806.146	713.507	1009.276	1285.214	1374.509	1729.193	1268.292	905.239	706.154	735.237	827.75	1098.13	1471.007	1437.757	1146.301	965.742	1012.946	1024.929	1113.503	941.592	966.621	745.338	716.15	651.172	633.315	786.756	806.356	803.862	858.176
1230150000	53.67	751.634	900.103	845.833	1027.224	1067.746	1136.345	870.013	840.645	724.107	912.943	1267.387	859.827	1289.565	1398.909	1231.541	809.495	726.487	949.101	1264.287	1382.48	1699.078	1190.8	876.918	688.17	768.888	806.866	1126.185	1494.619	1395.143	1124.896	935.262	1046.424	1084.986	1140.728	916.607	896.337	767.355	713.471	696.466	576.809	738.907	808.263	820.275	875.798
1260050000	54.19	696.149	906.189	865.722	1005.386	1073.496	1154.022	880.543	823.858	714.074	939.6	1313.792	909.48	1190.829	1331.632	1191.65	792.146	689.867	991.897	1243.212	1441.736	1681.457	1171.4	858.551	724.787	694.871	762.477	1098.581	1529.74	1381.558	1112.121	914.055	1037.237	1060.164	1130.901	1050.103	1027.553	776.463	669.052	705.733	598.342	838.507	831.929	831.639	806.573
1260150000	54.19	766.609	898.889	846.296	1062.638	1099.62	1183.859	879.056	787.049	686.702	923.523	1358.129	937.943	1224.363	1349.598	1248.572	812.263	698.207	982.45	1243.673	1379.719	1663.215	1203.792	902.909	697.542	738.254	774.312	1072.459	1521.333	1362.283	1165.629	898.988	1004.893	1018.6	1104.579	1018.547	1039.57	774.461	677.424	689.937	575.856	842.295	827.87	841.226	834.832
1290050000	54.69	745.903	885.412	890.165	1059.698	1126.767	1139.769	925.265	840.254	686.133	869.381	1357.839	922.655	1213.863	1351.742	1208.447	775.512	707.932	876.131	1285.953	1404.83	1646.097	1202.33	864.492	636.299	733.772	793.607	1059.511	1493.453	1367.586	1093.233	871.748	1016.917	1047.407	1120.557	1095.049	1153.29	702.004	702.562	676.761	594.944	934.293	895.285	842.637	861.246
1290150000	54.69	732.185	921.418	857.761	1047.158	1132.465	1128.843	910.344	778.214	686.265	883.218	1340.43	928.508	1172.155	1352.763	1197.599	724.265	714.472	901.18	1270.508	1386.927	1706.459	1141.728	845.597	662.984	702.007	768.79	1057.103	1500.24	1410.705	1091.201	847.791	993.091	1046.298	1111.628	1105.796	1064.803	696.539	706.71	707.613	556.237	968.945	832.039	816.079	798.556
1320050000	55.19	715.103	837.345	801.274	1033.642	1077.076	1121.036	849.299	793.631	681.167	887.004	1344.428	916.495	1158.018	1328.638	1152.648	754.732	660.655	824.807	1182.198	1341.47	1629.989	1160.834	807.829	639.054	667.958	754.501	1023.264	1462.266	1350.333	1047.51	836.464	956.335	990.152	1035.181	1090.564	1068.18	721.522	729.609	722.457	609.949	1185.331	1004.187	854.23	807.422
1320150000	55.19	760.63	831.496	893.971	972.481	1142.266	1115.25	880.605	749.285	641.983	870.603	1338.538	931.077	1138.746	1293.423	1165.518	752.265	737.736	838.769	1200.709	1295.751	1659.104	1197.369	811.31	619.782	656.335	759.994	1019.809	1431.552	1410.553	1109.877	841.053	951.209	997.7	1080.547	1122.637	1134.932	720.614	718.124	729.044	639.027	1151.505	1030.416	835.831	867.493
1350050000	55.69	758.832	883.775	882.193	979.544	1103.612	1100.454	860.575	740.71	681.441	824.098	1296.687	865.072	1120.201	1297.873	1161.613	700.18	588.692	781.919	1163.063	1295.084	1599.424	1099.067	737.173	624.181	661.241	759.723	978.507	1391.74	1287.614	1003.322	818.673	894.487	980.607	979.331	1129.775	1126.839	749.548	704.199	766.564	674.795	1306.59	1079.763	793.506	794.349
1350150000	55.69	786.76	812.569	846.753	1008.297	1120.163	1130.033	866.081	751.933	733.5	936.525	1249.038	891.16	1142.315	1315.968	1161.378	748.892	627.063	787.681	1207.569	1272.868	1613.408	1103.542	788.517	632.178	652.252	765.069	985.61	1387.119	1319.642	1020.602	892.088	875.978	947.802	1065.25	1134.21	1121.006	717.721	702.129	760.241	695.866	1320.448	1110.452	849.438	768.712
1380050000	56.21	782.097	832.876	788.193	1004.829	1105.798	1072.906	835.562	760.384	640.628	851.142	1252.54	844.411	1115.698	1271.647	1071.313	666.864	605.493	773.535	1124.639	1239.306	1574.6	1048.022	772.663	607.806	649.362	816.202	924.46	1347.346	1259.257	998.688	792.395	889.376	927.407	1054.411	1049.903	1092.248	751.305	791.269	819.278	785.812	1402.072	1125.827	826.546	861.624
1380150000	56.21	771.258	785.779	794.436	997.048	1063.62	1040.114	847.028	713.508	638.524	887.199	1215.754	867.514	1171.478	1317.977	1068.479	704.902	610.386	764.668	1095.551	1227.811	1595.913	1085.027	775.23	600.372	681.725	806.961	989.968	1376.734	1289.38	996.934	819.045	905.691	967.907	1049.911	1066.803	1051.71	773.45	740.115	811.529	782.418	1410.924	1135.075	850.009	843.112
1410050000	56.68	813.788	851.179	814.706	1087.989	1050.39	1031.163	800.194	748.762	634.617	827.266	1180.048	815.825	1050.473	1209.338	1001.618	637.153	546.144	764.957	1114.788	1255.6	1525.973	1024.988	793.196	593.216	637.775	899.599	921.266	1306.985	1218.225	1029.125	824.926	879.498	940.543	1026.931	1072.27	1049.754	852.088	865.436	826.22	865.154	1372.357	1142.283	894.955	929.161
1410150000	56.68	815.756	796.418	795.385	1112.902	1120.126	1071.344	735.6	673.108	705.27	851.994	1164.71	834.444	1108.106	1238.977	1073.41	685.614	596.895	740.696	1097.325	1240.675	1506.872	1079.371	807.499	657.954	675.502	913.652	962.248	1328.343	1251.274	987.013	801.92	899.62	915.148	1035.799	1064.174	1017.936	853.588	851.211	872.794	892.579	1333.365	1113.598	892.223	941.224
1440050000	57.19	888.637	844.746	769.823	1181.371	1042.304	1038.467	715.521	687.472	648.815	810.542	1219.024	795.603	1101.086	1120.218	1004.168	657.246	604.531	775.754	1090.589	1200.956	1527.78	1041.995	878.089	676.146	693.415	1001.006	938.052	1337.629	1164.237	982.295	894.597	908.5	949.2	1143.65	1023.019	986.854	1077.217	1064.433	944.36	995.496	1322.363	1182.297	954.499	1131.095
1440150000	57.19	822.359	826.704	782.646	1171.534	1027.725	1034.275	760.239	709.571	674.054	771.481	1196.875	845.019	1047.854	1136.708	1012.389	624.174	557.614	739.424	1059.445	1170.717	1487.646	1049.419	837.64	700.065	720.134	991.792	902.165	1300.871	1192.187	958.311	909.397	916.906	949.869	1103.544	1032.421	1083.176	1086.939	1013.009	1022.422	930.213	1324.648	1141.701	975.156	1074.937
1470050000	57.7	953.679	907.153	797.691	1220.252	992.43	993.785	726.863	666.593	647.122	774.207	1153.363	812.62	1021.435	1042.598	965.546	671.696	606.81	737.917	1024.776	1164.44	1445.562	1027.544	806.913	753.466	741.576	1096.91	889.853	1291.645	1072.609	977.104	1094.671	1081.704	1006.562	1278.877	1006.056	1065.566	1232.143	1150.724	1041.232	999.988	1322.507	1168.669	1095.248	1344.539
1470150000	57.71	965.013	848.87	839.193	1268.113	1071.095	1052.608	730.547	676.964	600.772	794.209	1144.378	781.499	974.727	1066.049	980.102	637.053	560.269	777.854	1036.305	1164.065	1442.658	1041.467	864.97	724.197	746.732	1110.287	883.745	1294.681	1111.087	1028.83	1085.168	1042.707	983.652	1205.806	1033.433	999.549	1231.645	1161.941	1056.81	947.433	1345.902	1181.043	1106.869	1378.085
1500050000	58.22	893.059	1057.382	944.047	1400.759	1035.942	924.226	722.654	645.355	581.094	735.14	1160.038	754.817	948.644	1116.82	895.871	610.639	581.825	769.73	1011.627	1141.235	1444.282	988.138	840.519	709.399	779.629	1112.175	888.408	1316.879	1075.883	931.129	1292.364	1272.748	1104.581	1389.656	907.983	1043.32	1387.594	1208.131	1012.724	964.401	1251.047	1146.772	1192.345	1580.837
1500150000	58.22	932.124	998.515	959.681	1334.497	949.785	954.747	696.741	642.265	605.526	770.435	1129.347	747.557	1028.203	1152.757	990.869	635.021	587.758	773.683	1012.309	1166.266	1482.19	1015.884	876.153	719.833	740.551	1128.462	925.759	1302.425	1073.131	955.078	1288.37	1373.939	1071.312	1392.933	1031.429	1037.936	1378.461	1196.419	1070.555	990.408	1325.832	1102.799	1216.582	1586.176
1530050000	58.72	857.429	1212.985	1050.442	1405.258	901.581	978.356	717.327	663.281	589.374	703.216	1171.569	798.753	1088.389	1103.571	953.509	582.008	616.574	803.722	985.594	1139.618	1399.725	1006.675	811.31	671.887	784.453	1127.603	905.863	1314.73	1066.885	971.71	1316.812	1396.959	1044.893	1489.778	1002.034	1035.055	1388.75	1110.808	1023.759	920.394	1218.592	1064.573	1198.079	1659.295
1530150000	58.72	904.811	1196.754	1055.835	1399.577	930.523	934.591	759.244	629.93	577.098	745.651	1132.56	745.9	1007.851	1090.839	911.525	619.692	616.09	806.762	978.366	1145.82	1421.142	977.675	799.401	673.388	769.846	1104.576	847.531	1300.848	1030.117	946.587	1415.262	1376.18	1100.767	1517.177	1020.815	969.809	1350.191	1124.386	955.183	943.858	1211.573	1079.32	1142.072	1617.002
1560050000	59.23	891.132	1282.523	1069.321	1415.545	893.279	901.633	751.141	623.553	578.783	721.879	1204.366	796.173	1187.342	1149.44	894.062	622.868	668.297	821.73	1016.614	1113.09	1403.345	942.014	718.383	624.084	759.973	1066.098	878.989	1322.546	1018.518	955.205	1346.059	1351.876	1032.41	1407.294	955.309	988.114	1321.055	1012.817	968.16	935.071	1137.864	1003.064	1130.646	1493.149
1560150000	59.23	881.447	1330.889	1070.504	1393.52	896.655	949.023	720.209	602.688	544.37	741.316	1202.297	794.154	1130.299	1196.535	935.966	666.429	763.607	869.6	1023.67	1185.247	1420.761	943.326	733.663	622.345	772.614	1092.88	875.473	1305.636	1011.34	982.54	1319.902	1343.435	993.471	1447.257	974.974	1016.492	1292.173	1075.084	983.972	950.866	1182.406	1007.299	1135.58	1564.417
1590050000	59.7	820.336	1299.645	1019.887	1281.616	848.417	908.277	799.84	609.76	585.898	744.368	1385.85	827.237	1225.701	1239.854	911.097	713.367	822.659	1128.794	1107.528	1169.91	1363.123	1010.301	688.223	625.154	696.029	1039.218	934.912	1446.67	1037.105	949.155	1294.971	1326.357	975.933	1374.447	917.996	964.659	1216.717	1024.391	851.404	899.44	1174.679	973.062	1080.074	1517.402
1590150000	59.7	824.069	1312.393	1007.539	1311.661	869.781	919.289	759.156	604.497	540.178	731.312	1389.653	881.936	1263.784	1277.77	903.265	689.8	824.448	1165.486	1140.785	1152.49	1381.772	1055.973	706.724	596.388	697.826	1060.112	973.128	1360.415	1006	993.28	1266.483	1290.241	990.112	1426.272	950.135	1008.375	1209.895	1095.457	863.29	879.875	1172.76	1000.178	1100.07	1524.524
1620050000	60.25	780.79	1245.716	961.253	1306.106	878.202	911.365	821.297	644.899	538.017	684.5	1752.692	1056.021	1234.022	1275.233	977.689	749.21	846.14	1196.561	1202.004	1366.293	1380.014	1106.432	706.898	541.984	669.56	1030.232	977.444	1525.039	1023.754	899.82	1249.397	1220.339	952.736	1371.626	911.457	995.458	1193.726	1004.222	896.926	867.152	1131.234	916.194	1054.788	1448.817
1620150000	60.25	749.559	1250.979	944.043	1288.571	857.552	895.638	829.799	625.315	516.837	741.839	1691.711	1034.687	1309.174	1323.08	903.212	789.108	826.404	1241.591	1183.539	1318.459	1371.215	1114.268	676.23	570.102	659.172	968.635	1047.901	1465.355	999.77	850.494	1228.544	1279.761	991.383	1350.216	941.009	1006.125	1216.281	1020.318	839.571	843.922	1153.87	900.831	1004.799	1507.163
1650050000	60.75	719.456	1191.887	946.605	1200.152	960.326	880.295	846.694	762.973	523.3	647.489	1960.9	1393.97	1381.471	1319.311	1002.975	809.711	782.919	1164.068	1076.316	1377.258	1349.535	1039.639	644.396	535.24	689.895	957.774	1061.164	1463.387	1017.433	843.754	1197.164	1249.741	917.167	1295.22	916.964	1054.409	1129.901	930.227	812.615	833.482	1088.068	928.669	1030.142	1404.107
1650150000	60.75	747.141	1223.773	941.257	1193.853	924.967	870.385	854.483	771.773	557.833	697.923	1991.34	1319.859	1387.937	1344.237	1015.03	834.556	823.4	1150.852	1081.095	1377.901	1317.171	1079.561	650.715	539.31	651.036	965.373	1030.567	1354.737	974.541	864.146	1156.366	1227.767	894.362	1262.43	935.601	1020.915	1144.338	946.349	782.68	830.78	1084.733	906.893	1001.442	1371.754
1680050000	61.23	700.878	1207.151	886.504	1184.338	1025.062	916.365	840.78	950.247	543.135	709.226	2042.299	1542.757	1563.669	1305.693	1113.505	812.081	778.692	1158.426	1028.93	1277.252	1244.478	991.682	589.175	499.367	606.882	971.165	1105.754	1255.792	1011.159	794.254	1147.421	1242.48	866.207	1250.691	930.697	1014.127	1097.779	846.164	769.364	818.115	1109.909	841.404	967.05	1392.115
1680150000	61.23	672.197	1176.59	874.319	1162.204	986.05	904.989	790.312	940.121	526.633	667.065	2094.888	1520.772	1488.313	1364.15	1080.224	792.749	780.891	1172.099	1019.28	1256.098	1268.157	950.764	589.08	560.388	625.632	974.004	1060.27	1262.487	1002.141	726.835	1149.082	1244.691	824.588	1246.914	966.047	990.771	1120.092	900.583	739.132	784.714	1079.977	860.498	941.099	1326.958
1710050000	61.77	676.33	1097.309	835.94	1166.02	1149.921	1115.644	757.498	1094.124	531.235	722.121	2076.924	1647.618	1620.62	1220	1333.223	729.372	767.526	1124.741	934.864	1156.859	1139.927	853.193	578.993	499.852	608.507	929.399	1074.372	1148.1	1101.14	696.127	1081.157	1199.783	786.79	1191.916	1008.755	906.581	1079.331	873.302	740.912	729.421	1048.51	804.902	937.515	1280.641
1710150000	61.77	683.401	1115.775	813.411	1181.72	1159.711	1125.217	779.697	1112.011	579.5	701.456	2022.565	1630.893	1589.511	1209.769	1389.053	801.231	740.677	1109.593	972.512	1183.038	1150.723	870.198	569.18	507.057	616.634	879.157	1060.403	1135.9	1136.654	683.672	1060.579	1193.385	794.421	1186.631	970.034	982.172	1068.037	850.724	731.958	696.399	1077.75	837.103	951.984	1316.08
1740050000	62.26	686.134	1096.376	816.331	1110.898	1079.878	1470.342	700.188	1031.957	628.239	832.939	1873.758	1710.164	1489.844	1146.757	1504.495	692.062	706.544	980.201	891.524	1174.608	982.703	774.533	587.355	492.9	585.696	858.161	933.367	1072.449	1266.017	627.097	1009.656	1134.372	756.243	1104.583	1044.109	890.835	1044.333	849.885	708.042	735	1029.654	821.667	944.406	1243.276
1740150000	62.27	649.824	1096.656	851.146	1103.408	1084.436	1542.98	697.93	1015.272	661.313	854.144	1844.383	1630.488	1472.394	1101.104	1507.894	702.667	695.286	1009.839	894.666	1144.331	1016.845	791.564	609.007	450.636	541.949	871.385	944.466	1041.325	1268.625	686.03	990.519	1104.035	802.183	1104.702	1047.704	819.208	1025.127	827.993	713.304	667.726	1047.31	805.763	924.828	1266.873
1770050000	62.77	685.128	1011.958	807.949	1029.414	942.06	1848.691	680.801	1000.337	902.611	1248.094	1794.991	1513.633	1390.056	1072.677	1473.77	637.839	724.779	965.467	910.946	1111.25	921.832	716.113	576.67	505.493	525.877	840.768	853.818	999.191	1413.986	640.89	948.663	1020.72	735.502	1079.752	1013.597	862.532	971.351	810.984	682.316	677.027	994.163	779.9	868.817	1241.12
1770150000	62.77	648.418	1034.664	798.302	1031.814	940.649	1762.51	619.511	1018.69	872.046	1230.443	1760.067	1524.373	1386.416	1103.455	1479.569	670.985	757.891	1044.092	885.607	1036.365	880.734	695.414	552.934	524.062	552.679	858.764	877.097	1023.038	1391.487	624.532	951.004	1072.411	705.219	1063.613	1010.313	825.994	967.092	794.775	701.543	628.946	1002.161	795.587	868.043	1189.078
1800050000	63.26	687.771	1024.351	745.109	1000.501	815.703	1703.656	618.197	909.874	904.863	1255.056	1721.387	1419.339	1266.696	983.704	1312.636	617.178	752.679	972.857	870.242	1024.721	827.236	629.367	514.107	478.388	529.31	874.556	859.667	967.082	1208.222	614.123	960.076	1027.241	680.1	1000.909	904.856	747.856	1001.002	791.152	694.086	621.333	981.185	771.63	852.81	1130.432
1800150000	63.26	668.37	1007.527	733.302	994.538	816.12	1731.206	618.297	895.382	882.7	1232.264	1676.174	1485.358	1358.498	969.869	1306.583	589.883	725.935	962.338	809.282	994.317	880.785	652.986	573.886	493.989	523.589	810.259	831.669	1001.425	1263.197	630.623	892.243	1020.22	646.676	1020.518	955.983	771.055	969.976	742.925	638.791	657.254	995.478	773.422	880.86	1111.395
1830050000	63.76	633.836	953.962	738.2	985.746	791.692	1541.264	613.485	832.701	781.27	1168.343	1670.655	1379.456	1259.98	912.023	1230.055	562.268	684.679	907.666	755.266	962.826	805.035	529.913	573.535	502.623	537.54	744.12	767.135	934.629	1148.574	588.972	929.104	948.533	666.345	964.888	769.253	750.627	923.849	789.749	607.311	627.648	980.955	791.92	767.919	1154.363
1830150000	63.76	627.971	953.582	745.025	988.989	777.393	1598.251	574.455	873.829	775.022	1147.249	1582.859	1328.738	1278.451	921.006	1231.327	565.533	707.801	944.529	798.223	956.302	819.549	551.966	547.123	459.364	526.893	785.061	832.119	951.351	1143.141	637.758	861.106	939.017	652.343	1019.907	799.908	770.309	1020.461	786.309	656.35	633.531	936.59	743.861	862.122	1180.473
1860050000	64.25	603.441	934.475	739.99	959.247	746.234	1474.067	594.357	822.013	682.25	1031.845	1536.105	1271.292	1135.606	909.133	1095.039	561.308	677.039	938.874	744.318	940.413	745.426	535.044	533.298	453.046	442.127	729.884	751.473	922.245	1109.574	599.301	865.798	885.617	608.352	903.831	774.897	761.763	914.136	771.63	601.508	593.496	916.745	753.244	816.616	1173.729
1860150000	64.25	592.71	902.706	765.292	960.215	738.744	1446.387	587.767	874.074	736.398	1057.538	1555.917	1308.964	1151.031	871.77	1099.074	566.567	669.393	927.824	748.336	942.945	730.815	488.672	561.74	448.038	505.375	709.424	727.353	951.605	1062.178	561.799	889.851	877.687	651.538	878.184	696.064	712.186	900.52	782.447	649.297	648.826	941.255	744.333	815.679	1170.237
1890050000	64.77	579.872	898.8	711.959	924.92	736.337	1312.776	522.545	792.712	694.622	951.736	1493.139	1317.512	1166.162	894.472	1054.408	510.839	669.784	914.809	728.865	907.497	696.608	531.099	592.508	492.429	466.902	735.914	767.13	930.266	1006.831	592.373	782.91	881.059	570.267	861.201	760.62	749.155	906.623	744.052	566.991	616.078	929.463	697.361	823.946	1173.863
1890150000	64.77	565.393	920.246	696.704	934.813	738.037	1391.915	575.197	795.353	658.28	929.644	1539.783	1306.746	1149.484	878.053	1026.871	548.214	647.638	895.486	671.964	920.426	730.236	525.439	529.417	514.07	488.52	724.76	761.516	934.384	1047.216	572.644	838.356	858.033	611.564	896.572	742.858	779.716	888.39	742.59	598.45	627.029	964.036	747.212	796.675	1115.281
1920050000	65.29	573.471	856.819	690.671	910.896	713.707	1301.36	610.058	747.054	623.08	925.527	1477.722	1271.234	1124.824	849.087	1051.111	518.499	719.657	934.032	696.528	848.807	658.832	488.865	592.986	482.472	499.125	660.187	723.917	894.16	988.147	600.189	856.654	790.537	636.331	884.084	683.17	772.561	894.018	746.967	586.336	566.357	916.484	726.589	777.201	1109.583
1920150000	65.29	583.244	897.952	699.399	900.685	692.143	1233.264	570.408	759.951	616.8	908.561	1421.072	1270.264	1112.084	847.934	1010.716	527.696	723.498	931.013	697.443	848.954	665.328	511.26	602.624	493.733	483.645	684.397	738.428	934.466	1016.302	565.199	808.501	871.652	596.755	842.527	708.354	771.123	876.371	730.105	621.216	629.79	947.875	703.361	861.625	1055.007
1950050000	65.79	599.242	824.103	666.344	938.891	696.483	1238.508	636.573	686.171	610.878	903.862	1490.495	1237.418	1063.334	828.746	1005.549	513.573	661.496	953.437	711.989	831.44	654.435	451.48	644.95	498.305	463.388	719.505	709.691	984.136	937.541	543.532	823.577	823.813	579.607	924.534	721.247	808.784	860.928	737.52	567.587	543.423	912.21	644.288	835.56	1106.117
1950150000	65.79	580.321	842.857	685.811	910.321	704.302	1216.221	593.346	710.717	588.228	843.115	1461.108	1238.345	1079.437	840.592	958.645	530.588	653.474	912.113	691.088	808.243	615.75	486.475	609.435	524.38	477	716.379	708.856	954.652	948.815	603.551	831.765	837.207	559.74	864.324	687.751	779.708	882.507	791.686	569.97	601.198	906.936	697.24	839.519	1168.927
1980050000	66.31	515.319	835.517	663.494	851.711	683.421	1195.693	619.35	693.384	584.004	841.061	1407.292	1202.322	1016.286	825.949	923.101	526.384	691.413	936.968	734.469	802.052	667.65	500.715	616.182	505.42	436.917	662.328	695.261	931.925	994.747	566.151	806.131	763.1	558.207	877.182	664.491	826.517	833.307	740.754	573.923	566.961	870.875	706.594	792.555	1176.878
1980150000	66.31	521.576	814.983	683.146	924.805	656.678	1168.383	590.094	684.503	534.28	863.797	1418.442	1234.226	1055.586	832.307	929.843	488.04	682.683	982.647	657.02	818.271	614.478	487.321	628.688	518.243	447.616	635.896	739.466	945.141	1019.105	542.792	735.041	792.691	585.136	837.816	690.185	822.871	866.195	802.728	606.448	617.99	863.856	683.402	792.883	1147.793
2010050000	66.82	559.712	861.645	671.082	863.208	655.891	1125.832	607.776	669.726	595.402	857.946	1372.684	1160.77	1011.331	816.252	942.903	498.255	702.325	906.57	665.016	809.252	663.005	476.144	648.784	497.299	448.884	666.556	801.703	923.83	1036.792	598.627	816.127	907.328	537.419	853.328	689.556	829.612	925.963	742.459	538.719	552.482	895.769	669.566	810.438	1115.802
2010150000	66.83	570.531	844.393	663.554	845.471	608.448	1143.958	619.515	667.928	564.363	813.458	1390.696	1197.761	985.027	820.658	862.062	529.259	631.413	950.111	630.698	845.583	630.381	505.426	594.893	497.464	452.565	706.456	762.951	923.021	1048.686	614.877	744.769	884.202	580.529	844.562	729.054	864.903	876.406	702.85	581.622	579.631	886.558	690.763	827.093	1126.302
2040050000	67.29	547.607	832.853	633.93	890.314	651.101	1110.094	643.962	644.499	607.198	803.243	1469.826	1133.35	974.37	764.467	911.756	452.473	767.231	963.567	623.438	808.029	612.63	499.766	639.654	489.965	424.549	713.442	744.007	956.333	974.351	587.992	800.395	897.091	554.262	784.43	730.052	851.943	840.053	741.501	569.121	583.985	949.482	738.368	826.589	1102.49
2040150000	67.29	545.235	833.233	663.488	864.494	607.225	1082.459	662.423	638.928	571.822	808.688	1432.942	1191.938	1031.826	794.013	913.922	471.393	753.738	884.499	639.095	801.176	628.483	477.814	631.952	515.542	466.183	652.045	751.088	954.436	1015.632	583.951	750.534	838.791	590.519	828.484	742.672	914.75	840.829	699.754	578.039	608.487	910.648	701.322	796.472	1140.924
2070050000	67.78	526.742	796.506	528.689	812.748	607.399	1045.277	608.703	597.348	512.124	790.266	1403.363	1129.273	903.415	761.07	842.297	471.55	712.269	919.274	750.05	799.767	607.191	478.812	629.711	459.399	435.379	671.904	761.978	928.147	1020.675	616.568	816.542	943.646	526.383	810.153	725.097	837.799	858.645	736.241	544.339	528.396	901.208	673.148	815.664	1095.412
2070150000	67.78	496.492	824.908	586.243	846.829	653.333	1024.658	642.861	642.506	502.974	818.529	1410.247	1095.653	958.817	751.687	842.072	477.805	705.937	946.019	702.192	763.363	627.75	461.185	643.458	503.135	434.799	674.668	726.43	970.959	1040.108	630.409	776.736	919.037	524.895	828.235	687.178	831.29	819.092	713.445	506.464	559.391	903.123	770.806	773.323	1087.734
2100050000	68.31	508.87	776.939	560.315	831.054	617.273	997.356	624.346	640.948	488.026	767.935	1339.49	1077.386	888.322	740.89	851.949	489.193	674.557	895.233	702.68	787.568	635.492	465.85	664.075	500.846	428.232	639.086	792.227	969.404	981.051	583.867	757.339	849.124	531.54	809.492	744.133	900.278	834.621	733.436	454.371	522.32	955.185	685.868	746.005	1016.198
2100150000	68.31	543.92	777.046	550.957	795.863	635.769	973.029	624.137	671.647	494.248	723.071	1401.576	1151.514	850.748	735.789	848.048	472.329	738.162	932.505	688.23	800.893	583.044	444.501	629.902	495.464	432.688	615.12	755.969	964.458	989.11	581.903	746.757	868.998	523.936	824.605	780	896.697	840.031	726.424	485.186	504.655	852.758	644.473	779.896	1070.88
2130050000	68.83	488.523	754.05	579.117	827.104	578.484	910.069	573.81	629	501.274	723.149	1408.215	1165.03	860.678	759.909	830.141	489.518	751.057	946.45	709.487	798.587	621.073	459.499	694.895	440.472	401.371	603.253	756.067	928.81	1030.44	614.57	760.485	890.859	551.293	792.27	781.94	959.466	823.66	761.771	523.097	516.333	992.887	690.749	775.698	1050.31
2130150000	68.83	497.26	742.901	540.994	798.095	620.562	938.966	610.318	632.112	490.159	764.556	1406.316	1146.603	879.23	736.926	835.366	431.257	765.779	927.116	668.296	776.055	594.487	445.918	675.319	436.38	421.103	624.088	763.746	949.484	996.431	596.695	744.321	856.491	542.967	821.777	755.951	878.608	845.022	756.199	500.527	515.67	972.142	673.505	755.738	1030.229
2160050000	69.35	471.79	810.265	567.809	827.048	545.378	925.59	671.637	670.883	497.7	730.27	1413.165	1155.426	872.502	766.121	843.138	481.645	786.382	945.704	722.72	807.015	608.671	445.356	673.087	450.345	431.808	621.397	777.682	939.129	980.813	593.025	754.432	837.709	506.398	787.296	783.76	928.449	836.645	721.707	529.162	532.073	985.403	659.45	766.314	1039.724
2160150000	69.35	517.284	753.181	540.465	803.547	582.686	943.573	594.081	700.094	524.759	753.019	1373.603	1129.512	884.02	709.427	815.753	455.775	770.659	948.428	737.776	821.375	581.797	444.156	701.287	445.997	450.862	624.275	766.507	985.109	956.213	587.612	753.681	896.815	566.65	790.512	808.815	920.85	804.789	764.229	457.87	521.513	940.794	638.945	809.131	1038.693
2190050000	69.83	505.311	749.082	564.837	790.009	603.275	891.152	631.889	684.387	496.726	725.826	1364.593	1148.808	906.721	725.425	822.428	456.947	765.629	900.394	747.485	835.161	590.987	434.549	634.647	459.841	418.75	610.888	764.442	986.25	973.075	605.703	820.699	868.922	513.364	796.41	847.24	933.82	873.586	739.986	476.021	510.487	1011.894	687.178	771.183	1001.754
2190150000	69.83	541.069	713.926	568.134	770.87	578.897	936.291	632.028	656.735	524.489	709.728	1321.619	1100.362	886.277	696.304	819.141	499.28	762.773	911.904	705.232	805.845	608.49	448.304	681.529	480.968	430.848	651.244	790.676	928.855	963.061	575.208	806.225	878.028	543.093	771.108	800.541	905.731	804.039	753.857	487.687	550.594	1012.941	651.299	799.948	1026.92
2220050000	70.31	474.328	769.588	541.292	765.367	570.186	874.26	649.498	688.726	514.267	702.785	1368.204	1074.122	935.694	716.408	836.329	477.713	764.714	923.212	732.677	785.736	654.989	481.25	676.271	458.337	472.531	616.782	778.799	917.067	1010.532	554.765	840.386	985.187	549.555	787.365	831.642	894.371	872.136	764.567	432.032	583.394	1007.639	685.991	800.883	1012.051
2220150000	70.31	474.855	773.943	561.652	788.34	578.384	883.908	642.212	710.753	514.509	691.615	1323.483	1073.67	903.477	676.875	843.491	461.159	764.806	927.621	696.537	807.382	609.753	480.409	664.973	480.181	471.018	655.762	776.701	975.15	984.599	578.915	826.663	989.824	541.638	775.713	840.335	880.335	760.399	737.85	490.302	494.934	1003.461	679.073	802.555	1046.542
2250050000	70.84	496.384	764.013	522.603	782.178	541.341	850.078	602.904	628.991	491.841	675.613	1313.617	1055.493	903.27	657.516	886.841	432.291	675.338	924.334	735.923	802.13	622.513	449.735	607.098	408.137	408.783	580.234	774.656	905.954	946.518	534.852	812.229	1000.43	600.445	748.142	793.363	890.956	758.649	812.78	454.306	545.193	975.244	710.568	771.282	969.124
2250150000	70.85	506.116	755.252	542.693	821.714	566.461	821.376	616.053	628.169	565.113	731.605	1291.594	1045.821	897.41	654.837	849.542	479.038	740.64	852.672	705.698	818.461	617.283	440.877	692.802	437.852	446.277	588.218	742.486	907.706	970.716	601.504	806.27	965.367	531.6	765.65	864.099	884.536	750.465	793.513	480.61	544.604	985.648	651.794	752.551	969.954
2280050000	71.36	511.124	739.397	549.372	796.538	557.357	808.333	613.538	691.151	511.33	691.487	1290.392	1073.531	894.674	634.877	820.751	469.65	704.48	963.075	717.77	832.157	624.592	488.137	656.481	496.58	448.529	606.21	803.295	903.119	971.002	536.892	854.466	1039.054	522.807	747.013	807.798	886.665	762.52	756.03	480.545	520.545	1016.202	662.726	817.901	1014.937
2280150000	71.36	506.42	775.008	542.757	811.9	578.05	867.946	600.994	727.89	474.728	700.511	1252.789	1087.318	889.457	663.245	864.253	498.52	687.445	941.893	729.293	811.086	628.799	476.492	637.228	448.593	421.15	595.208	810.18	917.444	979.154	605.021	818.806	1031.489	524.836	710.73	849.464	936.409	783.588	709.89	421.348	501.694	1004.512	709.078	783.781	980.766
2310050000	71.86	505.767	752.521	562.813	828.011	570.736	817.533	606.267	732.195	498.065	666.163	1285.179	1058.687	868.212	667.854	871.38	469.425	701.454	926.101	733.036	829.119	665.734	482.721	652.169	483.226	453.212	583.546	792.317	877.018	1005.611	595.456	763.491	928.857	507.833	789.041	847.086	928.697	771.029	725.991	491.028	478.103	967.813	655.797	862.079	1018.337
2310150000	71.86	503.399	721.546	566.496	787.158	578.44	774.637	618.699	743.391	495.459	699.885	1243.476	1031.03	846.935	659.059	868.325	501.514	664.664	906.326	752.201	862.075	628.139	466.232	596.923	470.272	407.533	594.589	817.719	890.513	1016.729	600.788	772.014	925.302	510.864	759.359	886.807	914.265	801.493	669.29	462.643	504.103	993.206	669.055	793.966	973.063
2340050000	72.37	503.12	707.735	537.167	793.354	501.977	756.593	632.06	690.065	538.743	640.732	1219.206	1086.653	863.013	668.131	895.984	437.582	655.852	881.685	789.623	706.545	644.468	485.009	657.522	421.084	433.404	605.134	778.723	884.951	1014.04	610.017	821.082	899.594	524.569	716.266	807.082	927.235	774.314	710.347	462.726	532.562	1003.877	666.884	750.199	1037.988
2340150000	72.37	506.363	741.254	543.652	749.438	523.872	769.796	636.171	691.82	560.237	617.069	1222.655	1083.42	853.523	617.676	853.069	461.306	684.317	909.94	710.253	762.409	682.99	437.241	598.761	454.728	406.114	577.613	807.737	906.52	957.56	570.261	751.243	861.272	521.719	713.272	872.429	907.254	780.925	679.375	462.116	522.653	1020.238	675.269	721.756	975.332
2370050000	72.88	497.813	716.842	555.788	882.254	517.44	778.568	588.959	641.64	503.691	650.383	1224.088	1056.992	854.491	641.619	837.445	466.544	698.14	889.206	754.553	699.746	660.823	452.058	606.567	469.946	421.58	527.413	782.858	919.142	964.284	566.489	733.288	897.313	508.893	725.248	819.039	954.742	741.765	673.993	403.051	442.797	994.406	663.731	713.454	1009.005
2370150000	72.88	540.555	730.101	580.617	796.117	494.432	768.561	659.427	665	538	617.906	1232.754	1034.989	876.746	624.243	796.839	486.966	644.511	916.901	740.729	726.099	686.321	476.036	631.95	497.307	414.529	515.902	785.441	887.967	941.702	606.856	790.051	880.885	508.724	767.27	868.702	948.769	727.618	685.672	430.258	456.024	1018.089	700.966	729.702	1056.741
2400050000	73.36	500.04	636.887	508.942	807.033	500.628	770.09	611.889	651.195	531.2	609.745	1189.607	1068.379	829.353	651.96	802.078	443.611	655.469	917.752	781.835	737.117	671.456	495.412	575.82	428.469	340.875	502.466	772.277	925.338	1014.621	612.653	809.634	884.976	521.607	742.778	771.067	919.409	701.794	742.899	451.666	425.714	964.932	709.66	745.21	1036.307
2400150000	73.36	493.859	674.122	537.44	801.82	509.527	766.313	608.466	650.274	523.335	638.159	1184.577	982.266	844.601	692.275	832.087	449.622	621.031	902.97	812.995	708.262	678.943	513.873	604.786	452.827	350.036	491.947	831.478	894.495	995.448	600.735	825.875	887.813	492.002	738.75	837.391	915.691	740.362	697.419	424.515	453.575	1003.053	694.338	721.867	1025.6
2430050000	73.86	637.548	754.882	555.463	794.781	524.006	774.051	602.158	635.784	514.213	618.891	1199.962	947.296	887.027	652.586	757.193	480.966	665.249	896.047	732.176	777.608	661.756	514.733	627.077	471.97	360.788	489.758	815.547	914.502	1006.202	533.858	774.736	858.037	483.971	761.899	789.223	973.068	706.355	720.89	422.262	457.819	1007.314	720.358	684.634	1028.978
2430150000	73.86	622.013	758.208	514.817	786.753	518.967	711.888	599.93	676.499	516.656	612.102	1199.632	968.977	874.353	662.509	812.231	438.072	623.537	888.021	683.612	741.757	658.44	541.186	583.954	464.884	390.989	486.047	810.097	902.745	969.665	528.979	771.395	840.467	488.407	725.248	795.311	909.911	712.346	687.192	408.443	399.936	996.682	699.799	691.149	1032.371
2460050000	74.4	580.382	706.456	498.65	822.312	543.963	731.17	586.28	663.431	523.085	578.598	1208.993	948.953	894.103	617.529	780.182	425.125	624.972	830.167	718.02	776.046	687.744	509.663	628.67	425.399	347.944	495.418	777.241	941.279	669.168	576.843	738.859	856.409	530.214	719.503	831.648	971.964	704.594	727.719	429.151	404.592	1001.584	678.952	738.079	959.054
2460150000	74.4	579.994	712.655	505.123	780.746	501.24	688.799	607.002	660.519	515.22	594.741	1155.622	959.475	840.083	648.29	806.995	443.263	632.404	811.692	736.154	788.426	646.964	476.581	663.531	453.978	335.192	514.094	796.489	842.989	644.232	533.686	766.47	839.061	552.543	716.572	786.573	927.377	665.684	737.068	508.16	423.188	993.796	720.9	706.524	938.524
2490050000	74.9	651.298	720.643	564.294	822.692	489.469	670.203	620.141	629.128	491.898	568.157	1194.402	979.266	640.266	611.188	766.587	424.414	610.507	760.921	727.68	796.662	674.554	586.359	628.118	407.437	376.295	495.731	827.986	843.783	671.653	585.201	775.297	849.724	478.821	722.894	823.897	998.083	760.156	694.494	448.65	465.007	1012.669	701.605	702.528	934.949
2490150000	74.9	696.926	656.752	523.21	837.141	505.052	674.239	604.128	649.849	551.965	554.236	1201.198	925.132	631.113	608.224	786.182	473.03	615.279	795.321	759.034	765.585	645.473	587.663	601.784	433.073	377.127	502.947	814.203	920.583	660.152	584.576	722.292	832.646	470.5	721.477	850.032	965.254	731.41	678.41	469.545	432.572	1010.907	728.756	709.824	920.151
2520050000	75.43	631.363	685.947	547.547	796.219	510.527	627.456	599.673	600.551	533.337	529.59	1100.203	961.252	587.367	589.315	740.26	434.652	595.664	747.959	633.819	782.312	652.549	397.689	614.062	482.426	372.741	491.44	809.899	870.034	646.421	509.61	726.07	731.878	546.424	684.693	782.642	958.977	691.024	722.536	471.216	422.758	1002.236	730.18	672.542	945.027
2520150000	75.43	640.366	661.538	554.3	811.729	485.88	661.374	577.158	633.521	492.987	537.839	1106.921	955.864	640.254	601.07	762.042	416.346	569.192	755.88	624.391	772.293	657.328	369.05	598.189	466.895	332.234	487.593	806.529	897.884	680.869	545.805	712.632	765.583	509.688	694.145	786.721	984.949	753.254	718.321	461.729	435.587	982.28	676.123	724.456	930.522
2550050000	75.91	520.941	625.422	487.669	818.291	472.921	608.539	579.036	623.879	461.541	521.738	1123.541	950.787	579.96	609.061	767.85	397.444	659.71	789.516	643.776	819.92	594.66	367.427	573.408	468.747	346.652	504.428	779.18	863.111	641.513	516.892	688.399	704.274	529.057	589.469	769.114	965.754	767.697	682.283	478.64	413.477	1033.614	667.221	659.822	889.202
2550150000	75.91	535.628	700.523	552.521	808.443	499.574	572.09	572.617	594.449	459.987	544.793	1092.024	925.663	599.63	655.102	760.359	428.535	640.978	717.61	614.215	750.555	604.171	366.179	589.121	481.03	345.975	492.866	783.845	901.949	606.836	526.312	657.061	739.678	562.84	668.536	772.406	968.144	732.134	697.895	470.392	441.396	976.626	717.728	730.995	910.176
2580050000	76.42	461.134	652.149	517.605	815.694	482.564	569.268	606.038	711.865	470.813	568.456	1108.261	931.714	635.599	640.822	793.392	392.344	649.725	743.27	632.133	836.66	601.623	380.299	588.645	493.763	350.547	504.713	811.57	909.49	650.07	525.22	725.366	709.517	588.641	683.432	768.968	917.502	727.077	675.44	468.077	426.511	944.004	695.356	694.321	910.956
2580150000	76.42	490.794	657.54	525.136	876.2	485.006	617.488	587.701	682.076	516.137	505.831	1128.175	1004.902	596.424	557.497	745.049	433.301	660.347	771.752	648.352	800.031	611.786	344.479	619.772	497.334	367.301	519.25	816.883	871.433	671.466	533.1	704.521	678.776	591.686	669.426	778.642	989.595	714.588	700.607	476.316	430.049	954.004	736.206	708.731	911.827
2610050000	76.89	484.361	591.466	549.222	834.597	453.459	562.479	576.515	655.254	487.77	567.749	1075.424	941.932	613.883	593.268	749.341	415.257	609.552	694.754	608.296	831.329	585.892	378.439	580.424	443.234	317.888	509.102	774.167	816.253	615.703	514.566	674.272	712.039	607.664	669.503	782.384	944.922	694.228	700.731	462.276	423.633	946.686	701.37	667.169	903.083
2610150000	76.89	482.504	686.494	531.825	852.839	445.684	545.928	565.449	682.555	491.104	550.703	1104.682	906.352	613.182	625.638	762.3	370.127	613.808	728.985	636.25	811.813	570.894	356.562	626.672	483.501	355.388	523	787.676	853.224	587.183	584.229	692.384	724.572	533.317	611.955	770.788	905.367	701.803	723.906	499.575	438.822	932.964	732.37	693.853	933.749
2640050000	77.44	445.651	669.975	503.434	798.186	504.837	530.75	564.051	721.724	432.57	511.579	1058.04	888.358	632.96	640.156	699.387	384.14	612.718	711.516	624.494	788.658	520.068	397.684	587.28	468.121	301.353	524.519	792.025	836.688	599.255	573.509	634.29	661.111	562.836	640.482	812.376	698.917	710.263	726.157	478.545	468.973	905.601	683.623	686.684	951.937
2640150000	77.44	448.076	626.914	496.973	793.482	452.576	535.891	531.853	640.337	442.165	494.611	1107.826	909.503	608.396	599.317	707.548	382.285	622.544	709.604	652.759	805.218	571.671	393.318	577.893	486.394	371.496	487.193	724.664	844.425	648.621	534.722	677.002	645.122	563.945	709.566	749.582	719.75	729.007	725.171	461.568	421.394	934.877	707.475	711.083	945.281
2670050000	77.91	466.015	659.977	483.292	851.36	476.731	513.445	574.859	578.472	488.713	523.962	1034.936	951.077	611.842	631.305	742.882	415.705	653.716	775.719	635.206	775.725	529.794	380.248	602.882	424.628	343.759	445.978	842.764	986.387	641.394	557.146	671.685	699.285	584.048	650.106	788.365	678.782	759.436	670.904	485.22	441.054	909.792	679.384	673.431	924.2
2670150000	77.92	443.992	691.265	491.418	813.985	447.578	515.628	572.897	560.481	445.874	515.665	1047.656	896.405	584.032	628.431	739.82	374.96	633.203	712.321	577.312	795.805	559.04	372.838	597.141	398.016	362.214	422.737	750.88	981.206	576.452	559.413	642.855	700.441	586.288	657.184	768.221	689.352	706.877	649.548	480.926	440.044	906.274	706.237	706.122	981.571
