FluorCam10 Kinetics Export File
-----------------------------------
[us]	[°C]	Area 1	Area 2	Area 3	Area 4	Area 5	Area 6	Area 7	Area 8	Area 9	Area 10	Area 11	Area 12	Area 13	Area 14	Area 15	Area 16	Area 17	Area 18	Area 19	Area 20	Area 21	Area 22	Area 23	Area 24	Area 25	Area 26	Area 27	Area 28	Area 29	Area 30	Area 31	Area 32	Area 33	Area 34	Area 35	Area 36
50000	21.79	464.721	532.864	746.552	592.908	708.286	508.828	575.464	448.949	327.569	425.565	627.048	931.719	719.563	564.094	618.769	477.654	513.066	567.009	639.629	820.429	965.422	698.472	775.765	524.187	541.781	533.974	915.911	768.782	516.212	706.312	460.649	512.639	472.552	503.101	534.737	545.368
150000	21.79	491.033	527.896	710.522	541.94	717.85	499.798	549.432	442.074	287.391	384.135	657.119	830.176	668.402	608.58	622.287	466.376	516.785	561.863	673.795	812.301	949.543	688.589	777.101	475.26	533.993	497.372	923.569	778.664	492.896	671.777	446.657	503.346	458.972	492.734	555.817	552.988
30050000	35	461.312	461.416	592.018	488.488	676.497	435.044	498.686	395.611	314.466	413.884	508.742	725.645	558.763	510.593	512.871	454.333	438.563	539.592	576.316	745.782	779.157	600.056	664.439	475.636	459.46	487.526	796.335	694.533	469.984	647.293	457.231	460.375	457.479	456.503	475.89	539.94
30150000	35	457.442	465.295	609.995	448.665	688.427	430.338	503.428	413.872	344.492	448.391	553.433	754.306	586.445	491.533	530.218	449.555	407.264	468.556	548.712	730.867	804.512	618.035	668.19	449.352	469.143	463.38	759.574	705.041	514.962	679.954	452.556	415.322	412.821	410.378	441.331	527.808
60050000	34.98	403.386	442.389	604.73	495.662	687.671	417.66	472.157	325.168	345.567	446.207	550.872	694.229	563.71	514.508	527.167	463.589	435.876	528.39	547.053	685.229	749.855	641.659	599.434	424.035	467.103	489.422	749.175	640.334	462.309	654.357	487.703	444.272	395.75	469.457	457.847	543.296
60150000	34.99	395.899	481.408	605.92	447.298	687.81	394.686	456.983	325.682	353.451	427.13	527.563	696.821	545.65	494.637	473.375	470.224	440.121	525.09	529.173	698.655	773.599	584.632	641.055	423.028	482.793	482.914	724.571	656.32	451.319	557.652	452.131	427.994	383.54	415.201	423.556	529.826
90050000	34.97	436.589	443.998	581.72	442.197	665.948	461.966	458.265	393.67	333.239	424.129	536.957	682.4	577.905	478.33	474.593	446.049	437.123	502.404	540.383	679.193	691.407	632.688	606.715	407.82	517.365	459.858	753.385	645.965	488.977	576.245	450.272	398.835	388.303	456.286	456.531	512.039
90150000	34.97	383.372	431.446	619.378	463.396	634.591	424.756	477.661	397.088	325.421	424.801	556.663	669.398	566.243	508.523	487.42	410.016	426.297	520.365	532.538	679.934	750.882	594.331	586.315	405.352	486.606	428.212	764.585	613.058	461.23	572.58	463.673	443.285	415.253	435.886	439.614	507.878
120050000	35.02	422.395	463.271	581.694	477.454	681.771	476.904	460.346	379.193	331.911	446.072	566.13	676.058	562.421	473.843	489.927	428.213	429.408	504.739	531.817	668.537	707.569	634.037	566.777	393.073	443.416	449.04	766.849	648.521	453.406	572.766	447.717	427.448	384.86	445.81	450.766	495.985
120150000	35.02	372.971	452.568	657.578	461.466	654.631	425.268	437.998	335.509	328.377	404.879	498.949	664.153	564.621	460.397	469.906	467.565	426.41	488.632	548.4	699.962	715.983	561.717	590.489	449.012	456.157	438.662	726.524	584.303	442.724	541.01	456.283	447.066	379.364	446.736	483.805	533.979
150050000	35.48	379.516	438.656	595.229	440.702	699.195	478.988	450.378	416.406	350.271	440.895	536.846	658.536	523.224	465.626	464.338	460.047	473.486	501.003	561.193	689.649	708.308	632.074	564.973	409.059	472.12	451.51	690.459	638.623	451.138	596.212	452.32	453.257	408.319	428.684	486.093	535.29
150150000	35.48	423.562	437.618	582.558	471.155	664.804	450.68	491.268	363.849	342.075	442.279	534.676	688.929	595.634	495.784	469.458	484.787	421.982	529.689	541.917	674.891	738.13	600.206	609.529	410.27	470.795	423.646	744.637	613.345	459.87	571.808	431.363	414.946	396.795	440.937	463.792	533.991
180050000	35.97	415.746	459.475	599.504	450.929	665.423	467.326	500.371	390.943	371.615	438.355	529.578	623.457	565.467	492.174	527.092	468.142	419.686	519.745	548.727	666.976	721.872	609.314	628.061	440.752	494.992	423.018	714.263	635.443	471.025	637.71	464.293	423.172	375.271	424.589	488.375	493.345
180150000	35.97	418.638	437.102	573.643	436.179	665.676	419.936	411.769	384.668	318.3	434.967	565.308	660.14	547.847	432.327	521.107	485.004	447.013	501.3	533.36	683.41	683.289	597.749	588.502	429.475	493.549	439.419	756.489	597.219	452.5	600.71	468.941	426.639	424.648	422.69	477.531	534.928
210050000	36.47	396.911	420.63	611.451	477.026	672.326	430.666	478.627	352.352	321.178	452.433	512.05	681.248	594.763	485.256	492.492	472.187	439.556	535.691	567.833	700.985	703.074	596.059	592.508	429.44	502.109	440.155	759.289	593.334	481.512	588.543	411.338	441.597	404.209	416.608	487.017	571.079
210150000	36.47	401.266	405.221	595.046	487.185	621.009	404.624	466.383	373.764	334.684	420.695	540.632	642.289	538.684	487.722	507.084	444.447	407.908	484.036	544.041	718.976	727.753	599.014	612.698	397.454	473.288	455.435	761.381	631.027	490.893	558.99	462.034	405.429	361.976	422.954	487.23	528.603
240050000	37.01	383.694	453.095	624.078	491.129	690.533	450.666	446.464	341.298	319.755	428.159	553.736	651.673	570.004	452.414	492.405	473.64	475.855	510.96	528.662	691.145	727.986	612.864	579.17	424.879	460.338	436.026	734.755	642.636	464.395	654.157	498.642	440.908	435.053	437.399	497.888	568.296
240150000	37.01	402.019	434.416	619.677	449.872	710.671	481.104	466.039	353.963	343.287	407.033	549.809	697.762	578.275	503.131	481.715	434.88	412.202	524.703	518.267	697.639	708.72	594.966	602.42	418.163	476.236	455.283	732.125	676.304	497.064	591.473	436.798	432.176	388.053	452.41	508.28	576.687
270050000	37.48	418.705	452.2	604.688	488.032	672.546	438.688	470.295	320.881	339.547	438.568	553.147	676.678	574.789	490.652	499.131	457.715	444.466	486.525	562.278	703.108	713.59	659.251	612.256	428.624	514.766	480.07	784.527	676.732	495.74	633.159	460.376	428.684	411.512	444.856	483.508	591.83
270150000	37.48	415.136	468.026	597.854	504.024	706.929	427.766	454.604	328.662	310.905	418.666	530.46	698.186	540.843	507.888	471.811	482.864	439.099	503.323	564.517	714.96	681.912	577.784	600.114	400.91	470.054	476.752	750.678	628.076	475.709	597.521	426.061	433.796	387.712	410.832	499.305	555.069
300050000	37.99	419.767	455.306	599.184	445.145	684.379	452.746	441.423	371.301	358.565	425.137	517.393	661.247	561.297	529.544	530.047	478.039	439.291	505.582	603.229	711.218	677.668	600.434	630.588	410.191	494.86	476.147	771.734	687.104	474.505	626.673	461.603	446.092	401.971	464.063	482.707	542.509
300150000	37.99	407.124	447.109	613.526	477.25	681.576	443.128	444.477	379.622	318.512	476.182	514.855	672.803	572.822	495.771	536.381	441.478	425.697	528.321	556.544	734.376	715.531	668.789	627.495	395.281	488.599	470.084	762.086	641.502	464.033	619.596	434.519	431.066	427.328	399.625	463.498	574.241
330050000	38.48	419.628	461.857	596.717	456.662	714.274	457.616	433.877	368.909	332.632	447.229	562.157	683.5	592.409	485.449	525.488	479.551	441.452	533.174	543.551	695.295	713.375	605.157	626.569	446.175	487.907	461.882	798.721	641.465	493.357	613.463	443.013	448.901	399.628	459.516	453.797	567.828
330150000	38.48	448.38	457.159	599.754	455.73	679.792	427.698	470.283	345.165	326.559	454.857	565.872	699.559	593.454	495.347	476.78	462.612	473.861	518.158	590.03	706.493	737.931	623.309	618.527	425.872	502.114	482.458	790.761	679.208	503.113	601.806	427.199	441.382	426.905	456.283	512.203	557.564
360050000	38.98	431.767	492.209	651.141	497.872	720.454	410.146	456.622	402.662	364.844	394.813	580.35	695.734	584.249	477.236	472.527	446.126	441.595	531.84	574.185	709.714	755.789	662.498	612.977	392.435	507.443	510.584	803.755	654.491	463.688	630.021	423.107	463.522	418.224	412.449	472.475	571.842
360150000	38.98	421.746	449.111	642.205	471.085	694.311	425.22	434.776	357.534	334.125	397.322	581.27	693.16	552.236	493.717	512.904	447.957	431.042	506.725	541.013	709.615	695.363	579.715	613.322	433.83	478.623	497.853	770.109	666.369	454.079	598.756	453.281	438.157	442.795	442.462	498.024	518.122
390050000	39.5	416.12	439.269	637.274	501.044	702.131	435.064	447.816	353.068	338.02	397.717	552.732	718.926	578.452	512.864	517.4	492.933	411.728	512.376	566.01	760.201	707.152	604.83	619.762	457.579	471.69	475.38	782.156	669.976	492.622	658.28	438.998	479.64	401.81	456.991	529.588	572.675
390150000	39.5	438.806	451.87	619.848	494.48	698.208	475.896	420.946	425.054	315.798	393.298	555.828	678.242	513.878	511.886	542.599	458.913	440.6	503.761	577.713	726.422	722.147	656.576	603.95	381.492	493.577	443.557	773.304	666.465	495.783	620.529	478.896	442.904	417.966	477.437	466.876	577.359
420050000	40.04	427.595	454.537	649.955	495.355	715.067	436.974	492.3	355.713	329.842	424.655	586.96	738.308	550.368	494.739	510.24	440.258	449.492	531.696	558.323	754.506	744.68	663.802	618.407	406.187	531.722	492.537	754.118	663.634	527.678	619.434	464.284	479.601	431.312	451.778	490.853	602.735
420150000	40.04	412.382	463.639	659.266	500.485	719.308	438.5	451.371	347.622	340.034	443.254	586.081	712.827	592.634	500.824	498.302	451.096	463.672	504.458	613.551	741.904	737.54	626.018	623.24	468.196	501.626	515.534	792.568	671.268	488.319	656.66	441.757	452.652	377.062	459.078	469.732	573.005
450050000	40.5	428.471	497.016	638.818	538.058	683.488	452.322	449.334	385.659	343.737	443.342	582.065	707.564	609.032	519.958	487.002	467.817	491.449	541.079	575.399	753.413	716.728	650.47	623.937	429.955	492.677	524.684	787.208	689.11	492.988	613.745	425.639	466.249	398.898	447.084	514.542	561.471
450150000	40.5	457.531	488.762	606.106	483.153	692.18	420.62	456.248	367.284	332.091	404.89	563.72	699.729	597.583	530.618	555.169	475.177	448.338	504.658	544.461	737.493	686.571	642.342	617.391	387.478	461.096	496.974	747.742	646.434	482.253	610.157	445.683	473.361	394.966	439.434	465.124	544.811
480050000	41.01	440.599	485.423	629.869	474.738	716.72	404.512	446.209	377.403	295.65	451.396	610.969	747.803	579.254	508.554	502.144	493.591	424.761	526.966	582.532	746.432	772.666	659.314	670.78	418.924	473.406	519.992	799.005	643.431	524.669	631.8	478.691	450.624	443.55	459.937	524.541	565.548
480150000	41.01	409.884	472.107	610.75	486.071	703.231	431.268	453.464	364.585	312.04	429.372	604.745	715.102	582.649	486.65	508.336	427.657	490.501	543.983	598.397	762.319	720.045	652.686	655.302	410.683	498.374	516.244	790.826	645.715	528.684	641.25	455.154	462.29	413.774	465.957	503.861	567.533
510050000	41.53	471.095	499.404	638.386	498.146	765.896	456.996	451.079	368.312	358.032	410.339	565.076	679.156	637.518	519.238	495.004	481.226	458.282	512.823	592.304	756.811	700.478	626.845	643.714	435.995	501.209	498.029	792.444	659.732	501.844	649.51	440.444	456.547	421.795	439.506	511.446	544.392
510150000	41.53	480.021	518.651	617.875	512.107	744.507	438.736	460.572	373.903	329.561	438.755	616.573	710.865	616.542	499.372	479.857	489.276	495.96	516.832	581.402	811.92	748.723	658.07	624.936	424.858	507.071	513.04	759.147	655.555	535.033	640.897	444.564	464.022	434.548	464.358	509.208	581.505
540050000	42.04	434.167	522.625	656.2	514.158	686.711	482.47	486.727	404.034	360.53	442.143	625.317	711.99	608.48	510.261	512.323	479.911	434.227	520.411	618.225	730.472	745.986	633.146	646.775	424.735	542.222	533.953	791.434	670.688	518.488	636.514	468.154	475.346	431.367	468.228	481.317	548.067
540150000	42.04	459.122	536.789	631.886	509.109	690.402	442.722	450.398	341.142	326.2	433.105	602.594	709.776	567.976	504.342	526.109	461.612	448.682	543.862	629.761	745.662	726.555	628.349	679.326	434.496	542.517	491.497	782.222	618.689	482.625	657.667	444.941	455.382	456.729	461.348	528.856	582.708
570050000	42.55	456.017	528.022	640.64	467.67	753.722	461.292	440.388	394.991	323.719	431.217	596.109	734.127	590.222	528.618	543.103	459.112	446.961	529.399	656.798	795.463	732.422	631.226	660.368	431.525	477.502	543.892	799.415	638.915	521.02	626.575	488.741	488.933	433.284	478.071	500.636	585.907
570150000	42.55	441.779	528.397	645.059	489.461	703.518	490.862	439.826	355.19	315.725	462.333	636.32	745.391	570.172	533.201	563.069	484.498	476.334	523.831	613.594	759.137	768.021	701.746	689.932	457.343	486.029	487.85	782.077	662.826	541.225	667.564	495.004	479.73	426.619	448.222	495.456	555.349
600050000	43.03	446.676	522.093	665.427	506.571	736.463	472.046	468.676	384.168	340.694	410.44	609.383	710.247	588.813	535.653	547.105	507.451	459.514	547.12	647.956	789.729	758.156	681.888	667.838	452.149	544.125	542.288	782.26	669.15	504.237	613.066	487.945	469.358	399.333	452.714	495.002	549.486
600150000	43.04	465.986	539.579	652.618	476.26	742.759	493.72	419.604	396.44	329.921	415.83	621.601	732.947	626.153	494.07	563.371	492.541	473.666	517.978	623.914	807.988	734.737	631.035	695.862	407.908	517.815	506.579	769.662	689.117	486.584	647.74	437.893	477.863	404.188	496.114	484.263	573.407
630050000	43.57	437.198	510.276	657.558	551.743	732.58	486.51	459.052	407.122	343.68	416.546	642.248	764.416	603.323	551.861	572.634	514.327	448.745	535.624	686.764	815.506	761.683	667.803	660.799	443.797	538.185	551.231	804.143	666.249	526.822	642.367	464.136	476.846	475.997	483.467	510.058	582.538
630150000	43.56	475.368	523.503	639.762	516.242	712.743	439.124	410.115	393.989	328.049	411.146	616.85	731.725	567.764	502.638	545.85	482.776	440.188	530.343	639.097	806.743	719.727	694.549	681.682	459.537	543.443	528.743	775.914	657.058	505.804	663.936	487.775	481.779	427.597	427.119	486.086	572.421
660050000	44.07	452.554	538.881	667.896	463.172	746.951	472.472	449.064	406.239	339.686	410.939	625.238	732.056	605.832	589.625	558.231	495.467	472.355	519.964	660.22	847.27	773.562	648.467	722.653	417.4	533.702	526.693	811.761	686.577	509.768	646.803	483.401	467.384	417.003	495.71	527.49	637.486
660150000	44.08	483.372	547.691	618.854	518.765	720.674	453.746	405.767	399.517	345.429	433.053	640.1	667.551	593.824	572.127	575.116	503.409	453.059	522.814	635.287	811.668	726.715	676.936	655.426	428.73	542.636	513.133	801.857	677.336	496.776	655.699	443.891	474.446	439.634	483.054	511.003	569.479
690050000	44.55	493.581	551.566	657.35	514.094	736.512	455.968	454.929	404.057	354.385	466.647	651.969	736.107	559.394	606.601	585.465	513.904	480.276	537.413	646.069	827.351	755.403	666.955	687.852	433.565	519.431	576.652	818.364	676.801	496.798	650.695	444.231	477.062	426.798	459.674	541.246	597.23
690150000	44.56	482.329	552.77	670.486	474.648	734.458	466.752	469.359	381.142	329.17	438.224	650.768	742.615	600.572	564.357	574.739	513.404	489.983	585.8	635.133	848.838	770.633	684.082	721.031	464.858	519.897	553.218	801.1	658.162	501.961	659.585	474.859	480.669	456.107	498.128	503.9	576.297
720050000	45.03	477.434	536.212	650.429	495.954	761.347	501.88	487.486	401.847	332.379	412.419	634.959	755.359	600.279	564.37	558.938	480.75	501.613	533.589	661.16	873.878	770.647	679.096	738.457	455.407	510.039	557.997	777.751	657.615	522.666	689.962	446.24	480.976	430.005	489.128	517.249	577.839
720150000	45.04	454.174	507.252	634.501	490.879	763.93	412.526	426	406.017	330.162	450.832	637.111	712.122	602.163	590.95	610.223	468.323	438.104	525.845	665.651	857.757	758.405	678.522	738.439	445.154	547.889	534.427	819.763	668.645	487.85	668.2	464.381	479.753	429.226	496.294	561.807	595.278
750050000	45.59	484.196	557.378	671.355	515.565	799.22	478.27	494.499	408.406	353.569	466.006	650.391	798.533	632.658	607.025	583.023	521.815	479.966	547.691	650.35	880.288	820.334	658.69	722.386	458.147	573.623	576.451	834.547	692.828	474.521	656.229	490.605	484.039	457.784	522.6	549.732	598.199
750150000	45.58	492.952	533.252	678.829	543.378	778.21	458.572	437.472	380.997	301.142	480.532	656.013	737.962	623.327	586.201	579.766	548.116	480.114	542.925	664.086	888.229	769.645	668.048	726.457	461.433	555.274	526.934	796.449	709.82	539.395	692.72	463.626	486.521	472.567	497.513	523.463	586.34
780050000	46.09	461.207	549.959	660.949	505.709	781.939	497.272	459.921	386.051	351.427	432.042	694.375	778.118	581.834	628.251	588.801	554.087	453.876	611.272	680.555	889.406	816	741.102	755.825	462.095	532.222	528.599	867.157	686.67	535.893	703.627	494.746	510.221	454.169	514.595	548.744	605.856
780150000	46.09	487.463	547.748	650.138	564.541	790.244	472.636	460.248	394.634	326.429	450.364	660.443	760.132	623.527	644.159	607.856	547.88	506.587	591.693	687.839	877.594	796.652	707.87	758.151	472.579	518.508	577.992	802.929	678.729	519.969	671.255	472.39	521.373	460.069	515.81	579.488	617.876
810050000	46.56	487.397	526.741	700.562	493.874	819.238	463.258	419.919	374.895	324.532	419.46	638.305	785.854	666.822	693.752	594.743	529.285	492.513	563.702	678.979	896.491	808.208	751.909	766.293	502.768	556.847	575.756	835.214	735.355	515.359	716.667	497.088	496.552	453.662	547.813	562.861	563.569
810150000	46.56	485.514	566.454	679.637	519.918	801.973	469.642	474	370.651	339.097	432.449	651.927	755.594	653.471	612.774	580.702	530.53	481.985	588.893	713.086	880.768	787.308	693.502	732.704	461.754	547.157	560.309	818.73	705.527	530.265	702.05	465.916	449.633	441.671	543.517	556.197	629.536
840050000	47.05	540.568	566.952	660.242	532.973	788.963	520.924	478.614	401.327	347.945	442.341	681.918	794.845	682.452	678.588	621.938	519.76	500.082	605.385	754.421	944.233	851.979	722.955	760.492	494.629	574.276	575.429	843.042	729.169	533.64	697.824	488.14	498.178	506.402	535.96	543.342	630.151
840150000	47.05	516.707	602.948	658.752	531.185	824.862	501.826	440.87	414.659	344.771	478.799	699.798	794.664	645.054	677.144	619.681	509.907	483.291	588.295	758.919	953.344	829.308	703.995	762.412	479.017	609.896	612.762	829.446	744.615	550.523	705.12	482.061	503.105	438.95	541.176	560.188	653.739
870050000	47.62	540.203	628.086	694.795	566.553	775.81	453.784	428.167	427.974	353.346	459.309	731.217	856.112	626.45	719.434	673.039	534.549	506.477	597.674	754.162	983.148	892.035	768.578	761.894	456.352	592.237	616.207	843.627	709.15	580.942	761.434	491.182	504.165	477.347	558.579	602.376	623.515
870150000	47.62	510.041	598.408	712.912	524.269	803.119	509.934	483.833	424.364	357.437	415.644	693.488	817.51	660.409	726.827	648.837	552.734	518.424	617.604	712.48	941.468	888.9	749.053	796.828	491.995	595.439	579.21	823.329	772.699	547.347	737.431	476.165	542.873	476.629	542.574	594.925	598.371
900050000	48.08	536.304	631.092	708.682	547.917	819.893	521.142	447.582	399.395	375.298	445.061	740.589	869.579	628.288	750.286	681.869	572.427	521.055	634.343	788.287	1028.059	951.002	744.67	808.669	449.553	580.822	592.683	860.912	736.188	565.464	746.213	518.079	517.002	478.091	593.236	605.324	677.548
900150000	48.08	570.093	640.587	729.733	534.287	845.497	499.924	457.317	397.821	326.935	438.013	752.84	841.936	622.327	729.367	616.593	514.799	526.57	614.093	775.644	1038.715	906.915	784.24	763.148	483.102	658.271	634.5	849.988	765.89	589.314	807.859	531.163	552.693	467.14	589.826	579.197	665.067
930050000	48.64	559.529	688.195	741.779	516.935	824.332	535.962	425.74	355.017	350.231	460.848	729.405	826.916	670.514	797.868	663.484	578.569	551.657	642.295	839.569	1099.916	985.42	794.218	825.085	506.173	633.128	628.108	833.443	746.319	601.285	833.774	527.503	555	512.009	620.994	606.742	683.799
930150000	48.64	554.8	621.9	707.218	545.129	806.243	508.684	457.246	423.281	308.387	480.316	776.488	863.839	655.837	791.456	635.728	597.38	529.57	631.783	848.357	1079.985	978.092	835.579	861.098	485.452	640.576	664.743	841.911	829.743	578.359	815.058	516.013	545.339	507.24	595.013	626.714	675.297
960050000	49.11	574.403	688.727	746.747	545.776	851.512	507.268	475.808	381.952	359.237	480.308	763.282	891.862	698.449	806.906	692.61	557.752	587.118	689.306	891.099	1237.385	1037.611	802.326	836.492	497.532	652.473	700.715	863.514	828.323	608.449	857.282	577.318	564.972	519.112	675.693	679.849	695.019
960150000	49.11	642.847	713.33	760.787	568.474	870.223	548.024	468.744	415.696	385.692	474.772	777.048	893.051	686.71	789.772	648.812	551.226	560.971	737.318	871.309	1202.56	1004.894	839.752	885.944	510.437	668.702	721.626	869.418	825.405	622.905	837.793	564.846	561.129	543.226	649.006	629.966	675.796
990050000	49.6	622.523	763.009	769.902	581.643	885.765	589.102	510.639	387.048	385.856	469.303	823.576	937.151	752.394	834.072	732.42	591.919	590.176	749.003	931.258	1273.133	1098.254	882.219	925.736	555.478	715.877	736.796	929.971	852.869	601.238	904.915	581.81	572.438	536.436	645.915	631.13	730.909
990150000	49.6	612.711	771.49	749.677	592.488	867.5	540.056	477.88	397.361	382.407	497.714	789.301	921.992	689.292	825.946	720.689	597.862	598.143	712.998	958.849	1283.49	1110.31	855.416	932.613	519.643	752.788	747.231	891.625	858.454	642.865	892.127	575.433	597.476	552.005	666.775	652.325	692.969
1020050000	50.12	652.351	802.744	791.149	568.219	950.985	548.466	515.037	417.409	377.466	509.518	839.469	1016.6	758.062	903.094	815.482	657.419	621.728	780.079	1000.877	1390.133	1149.663	912.918	974.42	601.324	755.865	770.492	939.5	930.609	721.558	890.386	603.755	612.483	574.966	685.687	688.89	753.034
1020150000	50.12	686.391	810.941	784.861	584.709	947.622	571.448	481.049	456.19	410.949	493.515	779.267	993.783	724.535	917.794	842.341	630.315	651.076	806.679	987.069	1398.866	1182.744	879.168	941.068	574.324	740.626	807.617	909.814	925.806	703.438	919.322	612.079	612.959	600.109	694.99	667.115	759.308
1050050000	50.61	708.5	849.14	845.086	602.956	930.478	584.338	528.961	434.545	419.016	541.086	855.787	1042.484	791.264	988.409	871.062	642.264	661.931	844.252	1030.431	1395.385	1273.337	961.166	1008.992	577.605	746.446	856.181	962.541	968.836	749.914	988.107	660.812	658.019	579.81	710.842	736.675	770.311
1050150000	50.61	694.186	861.902	829.043	610.913	930.211	582.214	532.83	409.338	446.706	515.617	844.614	1066.834	779.862	1010.941	840.871	638.575	682.281	859.478	1053.638	1408.167	1271.334	955.35	984.924	613.21	842.591	847.405	965.683	963.438	744.666	973.739	633.064	615.906	560.131	682.279	745.093	745.88
1080050000	51.14	758.609	870.112	879.656	651.18	1018.11	612.86	494.337	441.83	442.336	554.017	882.391	1091.967	858.486	1003.531	1005.696	722.772	724.072	919.828	1029.759	1491.83	1318.836	1004.976	1035.281	612.014	849.82	895.964	997.502	978.304	794.592	967.841	653.365	666.56	591.662	683.53	674.536	804.519
1080150000	51.14	742.742	910.661	924.282	672.944	991.062	571.57	510.342	442.943	436.526	615.608	899.248	1084.479	864.065	1048.953	969.053	725.4	725.326	933.604	1099.864	1493.27	1286.007	1023.373	1071.336	577.019	857.113	931.129	1054.452	1023.74	814.781	1056.196	669.621	703.646	574.495	685.846	704.137	794.861
1110050000	51.68	770.587	883.055	962.696	707.568	999.052	684.642	562.364	423.639	485.666	652.454	957.73	1123.722	902.484	1077.993	1091.508	776.486	786.351	951.944	1096.23	1594.108	1412.452	1108.186	1051.553	658.423	872.382	944.259	1113.724	1049.792	922.947	1054.635	730.381	644.835	616.781	690.904	748.093	832.461
1110150000	51.68	808.161	981.442	972.933	700.59	1065.753	637.522	536.84	479.185	493.7	648.199	987.465	1144.461	967.118	1058.174	1066.891	791.518	793.822	1012.652	1102.897	1579.72	1415.801	1081.8	1095.506	703.31	924.593	912.131	1099.651	1090.621	869.752	986.934	729.426	693.225	623.652	697.913	721.28	831.674
1140050000	52.15	792.69	940.494	1062.189	742.531	1134.693	681.262	604.622	546.193	532.138	728.279	963.551	1156.793	1014.32	1083.353	1087.484	873.12	834.781	1055.424	1086.192	1643.289	1479.801	1153.84	1148.519	724.227	956.421	941.519	1164.68	1153.596	932.951	1042.309	782.623	721.588	556.017	647.699	766.837	830.206
1140150000	52.14	809.391	966.623	1019.002	787.619	1115.863	699.888	538.383	514.989	553.63	769.102	1024.6	1187.658	1041.333	1123.186	1110.576	866.457	841.282	1009.089	1096.096	1621.158	1462.164	1161.408	1072.174	725	958.8	994.196	1167.77	1087.771	869.058	1047.264	777.209	772.133	618.609	696.127	760.041	881.153
1170050000	52.65	808.399	981.957	1146.186	836.517	1144.409	741.332	585.661	541.562	552.354	867.532	1041.729	1211.041	1154.529	1090.712	1193.932	861.795	904.249	1036.585	1086.496	1558.674	1429.467	1181.909	1143.609	773.671	944.237	943.709	1257.44	1134.864	920.401	1069.495	791.834	675.354	553.933	671.987	762.219	852.225
1170150000	52.65	802.326	950.218	1125.832	823.233	1199.9	677.582	630.452	536.554	526.126	858.885	1062.71	1170.934	1108.593	1094.154	1076.775	892.476	856.334	1039.522	1097.694	1605.109	1475.04	1220.176	1160.863	775.322	974.909	968.442	1240.112	1210.005	880.278	1061.811	791.265	718.438	567.66	687.26	737.8	878.655
1200050000	53.19	800.756	986.503	1198.44	848.053	1267.97	716.09	691.523	539.006	589.974	971.918	1012.968	1208.229	1146.211	1037.896	1112.401	980.559	925.718	1056.374	1085.443	1565.521	1460.901	1216.826	1153.359	821.745	966.128	930.032	1394.627	1270.088	932.594	1061.588	797.506	716.82	560.288	677.813	731.208	857.902
1200150000	53.19	833.911	939.294	1207.035	812.48	1250.802	727.184	630.995	597.665	618.451	975.907	1051.132	1187.03	1197.127	1080.623	1102.655	995.864	926.4	1057.657	1064.563	1543.423	1468.431	1249.024	1179.458	874.943	937.115	932.102	1357.204	1263.325	888.132	1075.308	808.937	741.646	594.793	724.207	788.093	893.612
1230050000	53.64	773.688	923.544	1235.35	873.769	1291.089	817.896	757.204	622.224	635.255	1028.058	1041.411	1192.761	1247.944	1049.238	1162.463	1052.715	988.024	1070.517	1039.004	1500.745	1478.111	1265.981	1212.31	846.872	985.199	966.262	1481.968	1336.762	886.712	1044.279	795.717	728.388	606.728	720.316	757.954	910.454
1230150000	53.64	779.953	901.503	1218.648	842.818	1268.176	713.698	698.356	556.321	651.411	1001.246	1048.481	1175.847	1244.404	1028.387	1092.338	1067.604	1004.516	1087.514	1025.278	1524.923	1462.907	1242.397	1162.77	812.934	932.098	914.015	1513.021	1281.609	923.76	966.938	811.122	708.522	607.815	721.021	754.13	878.73
1260050000	54.13	819.153	944.997	1252.158	898.821	1328.124	726.916	783.133	646.864	637.46	1075.407	1051.418	1108.536	1266.74	1041.523	1076.659	1115.053	920.213	1027.109	975.343	1517.776	1449.144	1282.275	1224.91	822.745	908.061	897.201	1585.588	1432.833	873.051	982.253	795.175	731.174	659.516	803.973	793.566	890.397
1260150000	54.13	802.888	946.596	1225.523	911.092	1349.247	758.01	699.985	607.29	642.899	1004.854	1031.239	1163.697	1271.6	1070.332	1094.51	1110.289	958.654	998.05	971.428	1478.214	1440.457	1241.634	1178.487	817.775	939.532	919.424	1617.266	1404.5	901.166	1006.82	800.417	753.996	671.321	815.609	797.498	822.306
1290050000	54.66	816.285	923.677	1245.403	936.379	1317.671	752.498	757.568	610.142	650.852	985.339	1008.15	1128.434	1230.893	1011.588	1051.792	992.982	919.166	1008.825	955.666	1450.007	1369.27	1232.072	1171.616	752.317	902.328	860.327	1678.458	1412.92	837.788	968.53	758.703	731.249	919.147	1001.861	802.866	855.033
1290150000	54.66	775.517	944.453	1279.624	964.284	1331.494	739.788	759.27	593.531	674.644	995.126	1024.413	1107.178	1244.011	1025.146	1055.991	1028.057	944.42	1021.851	929.617	1397.667	1336.151	1221.115	1131.129	827.804	917.12	897.12	1658.127	1428.325	821.947	972.984	791.009	731.2	889.079	993.986	746.898	816.778
1320050000	55.18	766.566	928.922	1300.197	933.651	1290.503	727.768	782.059	633.653	646.324	997.758	989.518	1088.515	1284.824	1005.876	1021.97	1015.321	904.703	999.477	920.074	1362.627	1335.512	1223.795	1147.109	783.839	885.401	865.843	1681.47	1409.905	848.53	957.891	766.385	746.052	1061.629	1274.671	791.117	772.473
1320150000	55.18	788.138	935.079	1286.845	895.575	1271.333	724.926	735.12	628.034	633	980.097	991.387	1082.61	1257.424	1074.548	1035.953	1052.64	877.714	997.955	913.14	1372.673	1325.983	1172.742	1125.444	741.56	885.352	801.322	1662.32	1435.06	796.156	996.038	766.399	749.245	1051.698	1238.777	785.351	847.385
1350050000	55.71	752.719	859.879	1245.61	848.577	1273.659	756.874	743.683	662.636	630.198	945.3	938.311	1080.367	1251.376	999.347	1001.398	1000.917	854.645	1010.502	888.157	1279.571	1238.419	1105.429	1087.651	764.967	850.722	786.974	1668.148	1383.041	784.645	970.841	735.118	764.957	1211.022	1459.714	772.356	824.732
1350150000	55.71	746.008	870.105	1285.542	903.815	1265.915	770.094	725.941	640.642	579.913	968.634	984.261	1079.632	1241.499	987.551	1000.165	1054.675	891.229	949.818	893.916	1287.985	1257.49	1130.048	1116.296	745.489	835.695	744.615	1671.616	1356.082	786.969	970.087	703.871	729.964	1202.933	1457.666	792.375	833.586
1380050000	56.14	713.24	847.109	1227.834	901.672	1217.869	727.742	666.58	568.009	577.37	933.785	956.884	1057.503	1235.639	1010.544	980.12	947.858	831.165	984.651	892.461	1220.245	1220.723	1118.797	1130.559	723.626	785.586	754.246	1573.654	1405.273	781.232	954.341	676.741	792.571	1188.39	1502.668	807.824	791.498
1380150000	56.14	697.676	825.52	1267.832	895.092	1257.118	702.792	734.646	599.17	559.04	891.757	859.327	1036.224	1218.923	958.786	972.981	975.791	858.469	975.96	882.932	1283.863	1241.886	1079.995	1071.058	691.797	751.68	742.589	1594.684	1319.031	812.975	938.47	735.76	888.105	1204.893	1478.563	820.932	806.534
1410050000	56.68	703.616	838.425	1211.454	837.616	1172.83	705.606	705.138	532.094	581.235	878.209	925.062	1071.413	1198.908	937.688	913.916	942.685	805.555	980.193	904.456	1204.969	1197.367	1069.251	1068.738	711.778	760.347	693.476	1620.634	1290.836	787.738	1060.022	752.057	947.144	1156.498	1503.82	855.839	784.856
1410150000	56.69	713.713	784.173	1188.134	875.99	1181.199	704.704	755.349	602.108	579.824	892.882	881.37	1026.748	1154.45	923.628	932.058	972.533	808.104	942.491	926.549	1271.223	1221.407	1111.282	1044.619	724.416	752.537	713.785	1614.786	1329.235	810.612	1109.369	697.61	947.262	1124.69	1472.266	904.036	792.191
1440050000	57.19	743.641	783.86	1162.901	833.976	1133.61	726.426	660.432	530.835	524.905	841.162	896.567	1066.886	1112.488	940.107	865.291	907.685	841.408	948.143	904.208	1165.85	1232.481	1085.339	1037.752	702.418	750.025	674.178	1637.586	1286.946	832.301	1297.019	777.631	1126.59	1153.853	1494.035	1008.742	799.01
1440150000	57.2	754.45	816.442	1121.232	841.922	1162.708	718.422	681.862	590.702	553.901	820.502	858.232	1076.044	1155.15	900.387	879.321	898.48	785.78	934.376	920.018	1211.664	1198.602	1047.602	1070.867	655.435	731.914	722.144	1613.784	1283.17	834.049	1298.949	740.297	1026.993	1138.102	1494.217	1046.22	786.907
1470050000	57.74	813.758	816.311	1137.086	764.684	1132.882	651.902	709.715	548.602	531.704	796.336	873.493	1078.956	1104.637	885.37	813.31	877.496	807.585	1056.149	963.487	1176.709	1197.623	1036.547	1037.243	695.775	694.49	682.73	1536.657	1260.765	941.609	1515.607	777.286	1122.612	1081.309	1514.736	1316.017	898.158
1470150000	57.74	855.219	849.858	1106.462	800.925	1107.101	639.294	734.098	528.52	538.605	782.967	898.389	1109.556	1112.056	848.095	835.002	836.736	771.716	1040.772	930.366	1168.071	1233.448	1008.613	1053.55	670.258	699.879	689.248	1592.509	1252.028	922.257	1508.974	762.011	1098.3	1070.693	1490.087	1326.164	932.426
1500050000	58.19	956.589	1009.316	1072.096	733.932	1078.93	675.514	733.423	515.494	527.532	788.84	885.267	1160.998	1094.465	830.077	818.141	838.535	831.385	1181.408	1066.929	1158.18	1248.913	1063.37	1044.113	620.421	707.064	749.244	1517.313	1289.308	1072.931	1549.345	914.483	1128.03	1101.431	1416.133	1413.347	1088.892
1500150000	58.19	919.376	1002.035	1059.208	785.728	1105.735	616.27	733	530.119	547.917	768.975	857.765	1192.742	1121.839	870.126	815.64	832.622	818.667	1240.809	1091.123	1132.456	1273.988	1043.947	982.04	682.203	697.84	711.383	1502.908	1231.107	1090.696	1558.713	868.757	1158.509	1106.567	1443.097	1460.897	1159.952
1530050000	58.75	922.659	1168.39	1028.394	739.094	1100.287	635.188	717.442	533.06	555.158	746.702	929.301	1290.535	1126.05	781.541	778.947	794.146	913.561	1406.753	1322.926	1168.795	1280.253	977.174	982.982	684.035	721.788	745.625	1438.335	1272.495	1285.168	1493.905	1043.014	1164.59	1046.597	1380.432	1405.464	1204.567
1530150000	58.75	949.816	1181.301	1030.597	735.776	1088.091	594.9	728.369	564.756	536.543	811.046	903.057	1353.781	1120.637	834.337	813.366	829.878	888.145	1417.304	1284.492	1204.333	1282.286	1002.858	1020.442	687.981	708.305	765.341	1467.983	1268.278	1298.457	1481.019	1031.814	1131.077	1001.455	1371.18	1406.422	1250.349
1560050000	59.22	957.312	1235.917	992.317	751.034	1052.007	587.604	693.076	502.909	565.66	795.838	982.33	1344.225	1069.52	752.029	758.3	764.982	1031.467	1491.918	1586.619	1307.274	1289.614	992.315	1005.391	670.617	791.667	862.807	1434.615	1304.185	1298.334	1453.974	1226.537	1057.859	1003.021	1348.875	1318.717	1298.792
1560150000	59.22	936.159	1214.477	990.224	783.245	1049.439	601.602	751.034	547.52	567.534	750.422	963.57	1353.138	1039.533	800.876	765.745	724.396	1014.26	1536.89	1600.871	1338.665	1303.164	1008.979	1005.203	666.995	750.241	885.838	1412.624	1314.32	1361.452	1425.122	1197.63	1086.032	953.467	1291.497	1352.332	1286.148
1590050000	59.73	879.374	1191.359	953.141	725.747	1042.497	627.302	690.172	524.753	601.061	885.011	960.889	1439.334	1014.222	822.454	761.734	769.163	1083.476	1460.328	1609.121	1689.373	1310.623	1060.194	1021.733	798.109	794.254	1030	1370.748	1405.159	1246.528	1372.495	1156.326	995.198	954.367	1284.805	1246.434	1211.146
1590150000	59.73	859.362	1169.965	934.827	678.498	1038.842	634.262	719.518	535.062	566.583	895.948	1017.308	1379.199	1001.996	794.745	767.942	767.937	1047.698	1454.803	1608.659	1726.134	1333.803	1079.221	1022.526	765.73	821.88	1030.22	1413.263	1410.819	1244.923	1351.657	1185.345	972.661	976.852	1270.535	1269.737	1248.337
1620050000	60.24	850.035	1140.337	936.651	705.41	1051.311	626.688	680.744	488.849	717.275	1154.553	1030.897	1318.27	977.071	927.3	805.583	763.514	1056.62	1402.165	1593.937	1988.985	1313.145	1150.546	1153.037	804.106	902.258	1065.469	1392.023	1560.918	1218.252	1301.037	1089.977	968.266	936.169	1246.266	1196.617	1216.113
1620150000	60.24	810.494	1112.49	960.166	701.379	1047.676	582.336	656.902	495.969	676.854	1233.515	1067.607	1320.464	978.157	908.662	764.653	740.683	1039.543	1432.759	1601.957	1968.892	1287.273	1209.123	1150.539	763.943	945.982	1043.43	1337.967	1476.117	1188.47	1270.462	1075.204	908.154	944.341	1259.767	1189.31	1211.68
1650050000	60.77	835.824	1131.51	907.194	698.867	1039.661	579.414	646.924	492.108	874.885	1331.738	1312.682	1261.934	958.836	899.745	741	715.976	1043.015	1368.478	1583.307	1949.872	1175.865	1302.282	1384.161	737.123	1079.295	1072.178	1357.062	1674.181	1224.046	1205.527	1079.708	885.53	957.383	1270.911	1104.144	1165.586
1650150000	60.77	851.692	1118.014	959.07	717.068	1033.341	620.224	660.971	466.562	867.796	1362.94	1349.051	1271.036	990.892	898.26	752.784	725.045	1034.941	1381.238	1532.533	2010.948	1182.858	1330.221	1410.203	698.877	1056.269	1041.32	1359.604	1687.058	1201.362	1207.5	1084.692	882.725	925.805	1276.027	1128.142	1198.041
1680050000	61.28	841.029	1062.385	975.232	719.774	1068.588	592.366	624.614	466.219	870.275	1345.964	1700.072	1274.758	908.695	984.186	759.955	746.569	976.948	1355.138	1524.222	1916.743	1109.922	1407.021	1648.034	694.622	1142.256	1068.591	1329.109	1642.579	1125.992	1172.312	1046.51	867.182	945.081	1222.402	1132.485	1108.414
1680150000	61.28	833.568	1055.366	909.094	660.769	1076.372	585.66	627.43	464.196	866.488	1353.132	1708.293	1207.76	898.209	948.141	736.486	697.809	964.363	1289.714	1461.851	1851.089	1129.77	1445.171	1639.617	671.674	1098.928	1075.66	1305.826	1625.522	1172.531	1117.245	1044.95	902.85	944.164	1252.429	1090.49	1123.457
1710050000	61.75	781.143	1063.758	879.304	698.837	1143.58	612.626	548.27	462.131	834.765	1277.243	1705.4	1145.584	895.811	1035.471	775.443	695.846	963.876	1307.879	1428.789	1815.904	1065.772	1382.922	1537.577	638.905	1071.057	1025.434	1276.574	1495.155	1080.462	1169.95	1014.964	876.39	1002.952	1203.696	1079.681	1188.816
1710150000	61.75	824.25	1051.323	917.661	681.437	1151.286	581.812	581.388	446.98	798.966	1258.234	1699.238	1149.796	874.191	1071.117	777.992	674.35	965.971	1263.969	1413.021	1865.478	1051.178	1349.819	1539.071	609.411	1118.234	1094.463	1294.157	1524.098	1063.215	1086.787	1000.744	874.434	1001.819	1231.066	1073.627	1162.78
1740050000	62.25	755.913	1021.32	968.974	747.738	1422.461	606.152	548.531	425.347	776.014	1192.041	1652.955	1066.289	791.454	1123.409	846.051	715.524	873.429	1231.39	1359.582	1771.515	979.251	1214.309	1353.08	635.981	1041.583	1018.272	1305.003	1399.528	1017.719	1061.867	947.242	838.519	958.572	1211.676	975.388	1092.598
1740150000	62.25	746.11	995.501	988.974	727.325	1415.975	640.954	533.57	417.551	815.332	1172.83	1723.974	1066.163	819.2	1106.087	842.79	714.695	935.617	1231.411	1389.329	1761.842	989.062	1261.419	1317.394	567.648	1075.16	1026.015	1329.787	1384.137	1021.066	1068.165	907.386	834.388	940.693	1243.85	974.959	1073.158
1770050000	62.79	975.209	1110.475	1307.488	1075.767	2104.927	980.82	804.904	716.892	981.148	1256.289	1715.738	1180.625	944.583	1146.687	1025.086	1045.309	1045.75	1338.68	1427.968	1744.562	1089.114	1203.995	1325.776	827.976	1146.689	1124.775	1456.884	1375.604	1144.386	1158.09	1098.376	950.522	1114.072	1353.66	1133.469	1166.045
1770150000	62.79	757.326	975.857	1190.283	904.065	2024.522	768.618	555.826	457.702	755.506	1126.785	1672.557	1021.597	739.637	1008.637	816.522	798.988	867.766	1179.523	1370.071	1664.457	943.754	1134.746	1200.359	530.017	971.136	1010.159	1405.162	1248.948	977.296	1007.934	887.624	774.35	930.902	1282.435	996.446	1073.024
