FluorCam10 Kinetics Export File
-----------------------------------
[us]	[°C]	Area 1	Area 2	Area 3	Area 4	Area 5	Area 6	Area 7	Area 8	Area 9	Area 10	Area 11	Area 12	Area 13	Area 14	Area 15	Area 16	Area 17	Area 18	Area 19	Area 20	Area 21	Area 22	Area 23	Area 24	Area 25	Area 26	Area 27	Area 28	Area 29	Area 30	Area 31	Area 32	Area 33	Area 34	Area 35	Area 36	Area 37	Area 38
50000	34.97	862.851	802.085	870.333	812.499	936.51	799.56	809.622	755.177	855.891	845.773	988.502	1083.803	1044.564	906.764	907.979	798.118	809.376	819.062	864.475	979.311	950.574	865.294	858.213	788.111	777.907	941.934	892.29	972.152	1001.08	942.301	905.615	824.267	735.98	775.712	868.445	888.657	855.755	850.69
150000	34.97	599.218	561.214	604.576	547.921	689.303	625.168	506.835	404.986	642.656	645.941	763.124	885.59	869.268	664.551	626.396	452.37	513.679	537	669.415	845.905	728.447	672.377	592.028	483.898	531.689	755.628	701.06	769.782	828.622	738.838	615.374	478.14	408.138	464.169	655.679	672.572	631.849	576.92
30050000	34.97	540.05	626.174	578.433	509.321	637.629	554.507	498.471	450.237	606.644	611.087	715.925	966.893	778.644	642.385	624.126	468.252	518.283	517.469	645.697	802.818	663.567	651.501	602.69	474.381	473.579	694.886	644.191	723.516	804.952	696.229	610.514	497.562	391.997	424.931	565.431	586.804	569.508	553.699
30150000	34.97	591.443	619.841	607.838	515.723	638.556	581.777	461.1	430.681	545.206	597.824	751.635	994.527	808.177	624.94	636.94	530.562	513.502	511.837	614.202	763.062	693.64	649.157	598.402	473.615	466.734	753.61	644.431	763.235	808.671	690.661	585.97	508.855	396.34	454.304	541.25	636.287	590.918	520.35
60050000	34.98	498.628	575.163	516.26	484.165	574.653	505.905	474.998	432.076	504.932	598.245	684.978	854.293	707.928	546.911	579.945	424.651	421.248	472.936	615.395	734.233	669.124	643.977	581.968	469.31	500.787	691.986	646.465	765.268	738.274	669.735	596.648	474.14	408.7	414.246	554.166	495.308	538.963	524.779
60150000	34.99	492.505	540.209	551.382	521.534	590.303	506.885	468.73	417.371	513.403	549.391	705.795	888.167	739.79	605.402	595.245	460.505	457.212	452.967	629.707	711.17	614.667	615.625	574.144	485.849	438.776	678.017	639.956	721.892	778.897	651.733	553.706	512.658	375.288	422.976	523.653	543.037	570.938	500.846
90050000	35	512.339	553.763	509.827	491.405	596.126	508.604	470.498	432.15	472.574	529.984	702.76	890.194	687.364	537.938	571.326	422.481	402.871	475.079	606.519	724.59	639.992	571.962	542.452	473.556	477.203	660.539	606.837	712.686	733.272	633.392	586.283	484	383.026	440.698	565.053	553.961	566.935	492.345
90150000	35	461.585	535.028	530.513	525.57	586.4	510.803	427.77	433.218	510.862	557.515	629.962	872.677	724.256	527.975	576.257	484.349	429.61	469.432	589.041	768.516	645.766	615.239	547.88	405.931	459.661	652.192	614.92	735.539	762.759	658.219	592.52	454.44	435.735	463.788	559.675	546.612	591.133	489.381
120050000	35	477.344	496.51	544.538	473.883	594.413	527.48	470.663	434.937	462.3	569.464	698.855	884.238	682.268	530.366	568.136	435.786	393.74	483.967	653.967	693.2	657.87	643.031	576.493	449.913	459.129	693.8	630.598	715.692	737.842	721.52	544.87	501.896	396.983	470.757	552.131	550.851	577.404	501.341
120150000	35	441.431	560.19	543.096	449.293	603.648	509.212	411.462	457.327	483.718	513.41	678.069	852.571	663.319	561.207	580.113	405.276	405.431	463.24	566.864	693.451	640.358	578.929	548.844	445.343	481.318	606.442	631.441	699.526	774.996	708.204	547.648	501.925	391.536	415.947	562.502	486.085	595.766	476.376
150050000	35.49	466.702	536.904	528.551	475.031	602.404	525.478	416.036	397.207	536.901	525.323	660.769	852.155	670.357	551.855	613.853	432.392	461.1	481.542	550.841	719.749	645.3	627.644	601.892	453.288	500.103	686.054	570.324	698.168	822.593	654.766	593.538	484.772	421.585	486.992	593.821	519.715	541.458	531.408
150150000	35.49	508.64	543.813	529.2	526.12	608.627	493.673	392.103	401.956	531.434	552.797	648.351	859.09	647.811	534.617	561.843	425.341	445.512	480.381	600.705	692.936	637.812	603.761	586.767	488.582	493.864	721.397	608.231	698.32	815.781	682.086	601.04	443.821	384.974	441.386	558.19	510.779	577.402	493.325
180050000	35.96	509.798	540.458	540.12	491.443	597.036	572.188	431.51	438.038	477.582	530.112	683.547	863.995	714.548	530.449	591.719	444.524	436.529	460.154	588.727	716.283	648.482	614.606	526.59	490.234	489.638	697.899	663.402	726.638	802.228	689.773	638.486	482.124	372.954	444.709	604.971	545.209	611.004	484.292
180150000	35.96	443.546	546.854	488.531	484.542	609.705	511.951	431.703	401.207	517.551	533.276	673.513	821.622	672.172	582.754	547.462	445.017	429.329	476.399	594.805	665.438	658.072	592.491	578.823	476.017	467.855	696.609	597.537	709.501	805.323	654.783	610.02	437.648	410.565	423.529	555.48	555.517	653.209	476.412
210050000	36.48	488.688	541.233	507.693	466.677	618.244	537.305	436.722	415.267	474.953	545.633	656.485	808.077	596.061	548.176	625.434	413.502	378.581	473.469	587.554	676.779	640.489	606.507	535.298	472.48	500.72	708.477	624.37	700.913	761.962	719.29	587.783	492.951	376.251	478.897	555.551	580.186	570.114	480.8
210150000	36.48	499.44	568.429	475.358	500.005	581.373	534.137	504.715	382.948	478.479	556.229	716.804	822.93	664.419	522.331	548.751	429.005	446.321	453.165	577.76	677.781	676.149	594.419	554.611	485.518	468.234	657.82	620.571	713.582	799.831	674.951	628.621	476.065	381.343	450.188	576.104	544.667	573.546	488.494
240050000	37.03	540.376	568.301	483.064	469.575	624.339	501.81	469.423	435.463	480.708	558.738	672.338	835.5	675.975	549.77	594.994	470.546	460.357	486.37	553.379	724.026	684.774	608.593	573.024	485.144	466.556	754.568	609.507	749.168	864.867	706.67	657.103	495.697	402.723	476.238	561	553.816	582.576	494.619
240150000	37.03	476.362	541.525	535.616	478.066	615.688	520.292	431.5	421	482.944	590.442	694.035	846.869	694.025	581.122	622.955	414.115	431.379	504.418	574.546	704.461	668.308	602.918	552.404	501.456	496.937	722.876	620.388	727.173	819.029	680.164	601.362	482.57	396.55	457.429	604.551	606.576	562.596	471.171
270050000	37.5	491.858	529.17	536.682	454.588	584.36	522.69	439.232	425.354	473.877	557.197	659.033	852.037	651.356	587.493	546.917	433.582	443.162	471.742	589.623	667.14	692.956	642.832	580.761	474.823	486.544	752.746	639.932	690.516	799.095	683.457	601.393	480.482	322.755	483.315	591.894	584.996	607.376	506.871
270150000	37.5	517.227	553.902	542.902	472.6	645.699	515.805	489.596	434.575	482.599	520.416	706.473	894.697	654.334	552.385	542.455	428.981	467.65	472.802	552.047	743.253	682.387	622.82	529.763	444.525	454.217	711.26	612.509	674.767	831.755	706.023	631.385	483.192	439.752	473.976	568.708	576.122	584.245	535.027
300050000	38.01	513.505	531.636	533.958	490.204	611.796	544.403	434.325	417.719	492.173	574.815	677.605	869.476	633.42	557.118	608.785	452.325	404.024	503.535	638.701	700.42	667.484	602.279	556.854	517.097	448.264	729.426	662.928	715.42	811.593	745.669	663.476	515.127	444.34	444.32	591.148	605.795	630.568	481.764
300150000	38.01	487.266	506.139	517.196	530.857	594.52	509.509	484.062	465.136	491.512	552.68	720.436	885.401	654.855	584.209	586.54	441.365	411.405	491.91	592.413	729.258	697.221	635.57	577.432	492.998	495.811	712.285	639.527	726.954	818.819	726.918	604.992	542.759	376.522	450.593	577.973	630.891	618.535	461.739
330050000	38.52	491.154	568.211	545.171	494.781	654.998	542.535	473.409	408.202	513.305	561.805	680.36	842.099	657.312	614.292	588.704	423.365	464.24	461.969	589.177	747.196	712.387	605.09	529.199	506.348	467.876	764.731	650.006	717.432	845.753	684.594	588.457	487.865	435.539	470.476	554.173	559.215	588.951	486.301
330150000	38.52	499.557	519.898	570.72	492.351	621.185	504.723	448.701	387.695	521.732	560.213	697.253	841.15	633.452	566.88	531.289	442.743	441.098	473.341	553.957	703.5	665.567	684.377	567.679	486.657	480.439	728.149	623.773	725.813	838.418	702.461	588.425	482.795	416.331	475.765	570.542	618.492	594.606	544.641
360050000	39	510.541	531.46	556.429	515.939	682.027	560.392	484.438	440.191	502.842	577.499	674.531	907.128	683.341	536.518	592.549	423.075	433.636	490.28	579.548	733.903	734.516	611.65	592.345	504.619	515.257	711.124	644.39	720.241	806.776	769.888	651.47	533.707	409.288	493.857	612.476	601.163	617.882	486.254
360150000	39.01	548.186	563.146	571.724	501.73	676.293	579.681	449.871	453.94	491.274	550.552	665.529	865.876	695.937	569.754	604.185	428.873	478.326	445.716	597.208	716.629	706.969	665.574	570.177	513.738	492.734	775.523	651.274	739.944	820.523	724.248	616.577	522.984	414.513	494.111	612.739	597.039	620.189	534.465
390050000	39.51	499.645	526.725	536.607	544.046	643.166	565.071	517.112	413.793	512.605	573.034	700.184	873.457	685.68	617.611	623.466	459.454	406.019	512.267	604.36	701.587	718.004	634.302	588.746	472.352	499.544	734.05	659.189	720.647	837.186	699.632	639.259	518.707	441.896	469.712	603.589	566.083	606.342	484.815
390150000	39.51	509.525	568.207	531.093	498.316	640.583	535.131	475.232	411.796	502.883	596.659	727.344	889.73	653.002	548.675	567.532	425.349	466.426	491.445	630.568	758.901	665.298	603.975	605.517	517.541	506.437	712.93	651.06	764.68	831.399	737.299	645.824	531.997	370.205	493.651	578.978	588.006	667.43	516.731
420050000	40.01	544.94	502.041	525.58	507.712	658.829	534.066	461.086	449.142	518.681	575.927	709.169	899.837	717.436	615.484	612.008	459.385	431.971	487.672	598.513	733.231	698.157	656.893	562.333	495.525	497.315	738.948	664.821	769.599	823.873	724.234	626.328	505.578	418.291	460.265	575.856	580.008	615.387	487.488
420150000	40.01	496.794	533.887	543.231	515.351	654.459	547.732	437.041	435.785	535.354	518.665	654.335	864.296	696.622	573.248	585.934	416.764	485	429.524	564.976	718.203	682.197	652.809	616.136	493.437	459.787	725.785	628.799	725.172	839.654	724.152	679.573	474.117	408.85	482.521	551.799	583.32	622.368	517.363
450050000	40.49	524.846	561.115	540.389	523.578	638.217	544.133	492.481	405.575	526.541	593.373	732.371	873.185	661.459	593.692	614.309	450.575	452.414	491.877	638.415	707.829	699.687	660.132	568.817	534.007	521.388	757.037	678.561	715.78	800.576	707.088	625.739	542.013	424.389	490.733	602.363	610.426	590.155	532.094
450150000	40.49	476.628	529.778	540.693	534.735	622.145	503.715	486.266	424.777	526.115	553.826	668.875	872.085	647.767	572.665	614.149	461.166	455.781	497.771	588.741	691.83	701.801	645.063	578.434	486.069	498.699	778.229	708.245	787.95	820.424	689.596	655.15	491.858	416.473	521.963	640.314	607.558	633.772	492.41
480050000	41.02	513.33	559.488	590.269	505.611	681.438	551.15	420.998	437.665	537.537	578.217	648.216	887.898	713.59	581.836	609.164	496.889	464.133	519.681	622.505	718.608	710.207	644.839	610.191	529.728	496.397	740.06	630.861	774.726	841.413	693.314	642.818	535.37	369.28	461.36	613.332	582.512	672.374	492.214
480150000	41.02	483.619	528.917	554.982	522.079	624.114	564.053	468.926	419.057	526.512	592.31	699.811	862.791	686.583	607.228	633.774	455.49	469.552	457.989	635.422	772.802	767.275	668.417	624.84	500.7	471.535	739.085	670.861	753.41	848.987	733.526	621.277	496.728	447.265	499.706	544.668	552.688	629.237	484.403
510050000	41.53	509.11	570.242	557.289	512.672	644.91	592.524	523.304	419.82	497.16	578.546	679.46	867.726	705.459	627.878	647.368	455.719	465.495	479.731	617.603	751.12	766.406	684.512	568.333	495.504	488.54	743.488	714.867	814.528	818.542	726.682	652.136	528.516	406.317	483.204	612.608	610.888	658.353	517.746
510150000	41.53	496.849	551.974	556.562	490.789	675.461	518.057	472.139	467.286	512.317	584.359	632.387	886.631	715.17	630.967	619.132	461.108	490.805	469.736	630.974	756.581	712.025	654.21	551.897	516.149	451.869	742.095	666.091	774.929	826.202	738.754	651.117	516.886	431.504	544.537	603.387	632.494	646.4	548.991
540050000	42.03	480.654	562.566	558.031	549.761	628.41	548.119	535.402	463.183	556.486	581.473	644.875	917.145	712.236	625.783	606.836	477.738	469.895	505.09	616.365	787.843	743.487	675.149	633.876	526.371	511.386	762.981	688.37	818.445	812.029	750.491	705.802	499.557	447.501	509.243	635.544	608.915	622.714	533.682
540150000	42.04	516.472	538.824	553.833	499.84	629.091	513.9	475.715	466.221	530.432	538.732	663.705	915.075	730.86	651.261	582.517	473.887	524.131	481.936	639.151	750.366	684.677	686.727	596.44	541.69	502.551	719.002	713.368	773.139	821.842	722.168	694.731	489.746	437.092	511.524	621.234	578.116	644.355	501.548
570050000	42.57	477.257	564.623	544.696	460.191	650.792	537.781	480.201	474.954	504.444	555.045	669.733	888.43	659.597	581.462	622.147	488.526	496.917	511.956	647.664	770.113	703.292	694.061	588.037	479.57	531.465	733.269	687.086	800.532	813.928	700.465	622.561	510.184	457.432	517.566	595.852	607.099	661.738	565.283
570150000	42.58	494.5	494.39	557.369	536.585	634.606	559.9	474.988	403.48	508.844	593.635	653.745	876.469	692.529	551.77	607.362	431.543	432.057	455.441	637.43	724.94	736.77	705.864	628.172	496.797	539.037	757.806	656.074	754.717	802.863	718.539	629.13	500.876	452.138	495.823	617.903	573.455	625.361	547.535
600050000	43.05	527.204	533.333	523.167	533.585	627.615	551.573	515.086	469.845	562.22	555.694	704.211	873.461	678.73	634.644	653.77	450.18	462.419	493.238	608.375	801.599	758.166	683.006	627.505	490.716	462.769	759.145	715.097	800.977	905.696	735.179	679.117	503.412	473.977	517.868	581.951	604.368	665.695	555.276
600150000	43.06	505.468	545.673	573.753	522.621	625.922	542.73	508.062	437.638	504.344	550.913	644.949	871.588	692.515	596.578	619.24	460.45	486.088	497.139	647.104	783.708	750.358	671.482	601.231	507	495.259	748.037	650.101	773.266	881.424	720.642	680.506	492.459	385.597	519.878	602.728	653.444	624.725	541.955
630050000	43.59	510.56	562.956	569.589	521.621	585.844	560.644	516.55	447.678	518.414	571.953	644.509	887.961	728.837	646.106	643.366	483.084	466.986	509.211	635.291	816.419	763.126	676.229	631.75	491.165	488.446	767.583	734.485	817.665	788.04	747.518	656.237	516.982	466.337	511.997	648.739	597.076	668.449	531.007
630150000	43.59	531.869	545.93	563.662	513.44	632.488	546.965	566.471	412.343	500.984	556.341	658.793	848.044	681.855	629.366	590.762	474.248	492.543	512.302	643.695	758.309	721.865	700.788	592.42	515.979	506.117	712.94	717.948	775.566	782.702	702.339	637.619	543.352	425.475	538.643	607.471	574.667	630.394	573.492
660050000	44.08	487.378	532.693	553.991	549.644	594.844	531.414	499.194	434.668	507.039	598.57	662.011	867.007	707.324	614.157	636.46	472.589	530.26	562.623	656.78	800.367	764.834	689.717	628.116	547.444	499.708	812.647	705.577	859.888	819.439	764.164	681.324	535.199	474.504	511.603	631.153	610.172	643.456	517.174
660150000	44.08	501.695	531.525	546.511	517.468	697.741	596.215	475.739	428.847	528.457	586.055	698.702	883.367	737.669	619.149	668.987	479.079	505.331	520.509	663.642	788.7	743.613	736.83	667.249	509.669	509.75	750.264	736.398	819.647	875.595	733.048	699.196	569.798	422.331	539.831	623.467	654.149	655.725	540.116
690050000	44.58	532.759	584.826	587.333	484.802	686.945	568.962	464.395	423.368	544.805	607.58	681.076	915.869	694.769	653.638	664.634	528.026	504.302	493.903	651.057	801.5	794.799	707.224	598.037	488.324	502.07	746.494	715.688	836.807	861.272	739.57	675.692	563.658	457.712	552.624	644.254	632.506	656.74	539.543
690150000	44.59	497.518	567.723	564.787	509.735	660.44	561.633	501.057	418.747	540.689	587.312	664.407	912.685	728.257	602.331	626.872	492.495	481.126	474.725	686.413	785.655	743.224	680.48	621.862	540.856	472.171	728.942	688.457	851.42	852.087	719.45	642.253	526.857	474.176	473.13	593.343	637.913	625.415	544.506
720050000	45.11	520.284	552.214	545.231	516.473	701.507	565.553	504.036	483.283	536.175	599.635	670.058	904.172	710.448	592.017	623.298	506.385	482.624	495.178	684.945	794.21	798.021	743.776	633.501	539.92	488.591	786.027	737.738	822.578	835.586	696.442	674.346	502.174	468.939	576.077	616.929	626.994	613.159	550.835
720150000	45.11	503.633	558.185	621.302	546.891	680.579	601.819	507.218	451.692	534.469	623.065	669.444	891.966	718.336	648.491	664.594	466.952	524.052	504.894	678.024	811.367	778.654	732.174	607.144	537.272	569.965	791.05	754.618	803.264	861.713	756.731	676.018	538.953	460.176	529.487	598.268	624.853	654.088	588.011
750050000	45.58	528.099	556.434	562.493	499.13	675.916	551.365	518.404	450.371	572.654	599.73	680.88	926.566	708.1	634.265	636.764	497.572	534.745	544.844	703.627	836.145	787.408	762.442	645.542	526.53	525.065	817.897	761.809	838.742	877.831	747.147	669.84	501.733	429.49	546.574	644.938	654.773	710.097	511.145
750150000	45.59	526.073	568.686	606.082	453.878	692.714	543.723	508.569	501.55	551.691	632.201	695.455	898.468	734.168	657.634	654.4	534.099	491.526	563.509	709.505	819.38	841.727	748.893	612.292	532.922	541.255	817.537	695.988	867.549	852.376	764.85	663.573	546.471	482.231	552.831	644.646	651.715	624.206	583.784
780050000	46.08	543.761	629.588	630.327	579.031	676.04	564.785	480.83	486.586	605.457	610.641	692.915	978.799	752.625	725.822	687.083	505.642	493.436	539.546	718.098	865.263	815.47	758.015	675.089	542.974	522.507	814.081	756.485	861.193	846.867	732.211	694.198	533.399	482.274	534.378	675.089	672.634	713.671	575.657
780150000	46.08	523.367	600.684	601.913	545.079	688.059	590.639	498.608	426.597	587.862	634.651	706.72	969.757	749.298	663.791	692.128	501.385	578.538	555.529	703.006	853.163	835.634	787.706	664.667	556.123	495.068	781.711	767.66	848.119	842.913	762.901	679.559	522.92	461.297	520.392	666.98	685.603	677.06	571.094
810050000	46.6	505.532	592.793	652.744	564.468	705.474	590.316	511.557	426.537	576.854	662.811	713.7	1003.447	765.285	705.091	691.817	503.798	561.05	538.546	701.373	890.435	864.843	780.478	657.499	595.631	555.07	824.731	771.837	845.759	871.211	747.945	727.17	517.645	438.96	548.725	675.053	689.118	685.561	575.134
810150000	46.6	535.188	564.874	614.6	544.552	670.804	587.699	505.83	449.687	556.632	636.811	707.482	981.893	719.306	679.456	716.87	513.262	532.671	531.41	692.888	854.479	842.449	790.191	666.002	574.707	532.86	823.597	752.264	883.782	854.152	780.408	698.247	525.526	483.695	543.799	643.794	635.643	666.51	590.82
840050000	47.1	558.463	597.144	616.618	539.102	688.539	624.885	528.945	474.335	642.529	650.866	737.611	1036.546	803.609	676.704	702.792	502.351	553.538	571.872	718.605	908.018	900.503	821.631	705.428	611.348	568.313	872.731	742.205	879.206	928.741	819.299	716.026	553.777	491.96	588.992	667.869	718.785	717.695	598.996
840150000	47.1	513.156	603.414	698.189	583.924	708.665	570.746	516.024	517.466	590.28	698.592	752.502	1018.389	782.299	696.017	678.217	505.675	574.555	575.694	762.55	862.336	872.863	833.333	641.13	545.579	541.339	857.806	745.907	846.096	947.894	801.844	744.957	570.194	489.937	565.616	714.082	744.289	721.475	588.777
870050000	47.58	552.606	617.057	652.464	610.532	784.072	572.586	508.947	467.401	612.946	661.314	742.524	999.189	815.11	714.619	752.943	548.118	559.681	557.242	768.171	921.94	883.687	879.702	729.264	582.991	584.217	815.527	799.044	921.971	896.625	789.994	754.506	564.143	504.487	555.944	759.881	670.279	661.716	578.254
870150000	47.59	523.654	639.122	658.091	565.547	736.836	624.226	584.667	460.621	590.617	669.134	747.089	1080.389	799.403	731.437	698.147	511.298	606.94	559.678	735.587	870.968	958.366	858.866	685.099	642.787	549.311	877.269	776.742	854.395	894.182	780.335	731.759	563.593	473.115	573.368	709.79	749.676	698.138	634.283
900050000	48.1	546.867	567.669	696.904	639.397	783.964	588.46	535.428	485.567	634.232	702.548	761.442	1105.469	830.748	754.677	725.651	475.18	556.112	540.896	767.994	928.521	967.882	964.296	727.976	652.759	559.122	916.957	783.557	915.326	933.563	844.556	793.364	535.622	446.277	539.878	775.44	745.572	772.325	631.526
900150000	48.1	565.085	627.294	756.282	640.659	803.958	640.394	555.376	473.899	605.938	677.17	774.404	1103.655	810.485	805.561	714.166	535.827	569.543	543.678	812.851	888.827	931.905	850.359	684.01	602.274	586.493	877.891	794.934	844.545	971.633	831.116	785.32	583.14	471.859	549.14	707.168	723.091	713.404	607.624
930050000	48.63	596.227	618.632	722.118	629.282	751.851	667.522	532.093	538.131	644.383	685.085	816.331	1140.121	894.618	856.273	735.785	570.353	612.236	591.352	832.277	952.481	967.25	924.574	730.375	630.348	560.199	879.486	799.662	944.536	935.698	789.221	767.075	565.22	476.009	580.616	747.697	802.752	743.329	706.494
930150000	48.63	624.638	652.222	724.813	674.606	794.36	671.555	533.072	532.501	653.718	705.582	835.527	1131.801	835.042	856.911	809.047	548.106	572.412	585.438	768.745	941.399	955.25	917.094	749.008	634.137	615.033	951.537	846.268	931.285	1007.702	806.488	766.405	561.718	481.398	553.518	789.25	780.812	777.043	667.087
960050000	49.15	609.736	664.935	767.004	664.865	857.187	691.5	598.562	491.259	633.148	781.627	847.064	1163.378	863.173	854.222	768.883	588.248	586.748	608.315	831.265	997.691	1002.114	1014.581	793.331	695.147	615.012	928.335	915.747	962.809	942.087	897.276	860.684	600.705	495.749	612.923	769.082	825.432	840.385	692.465
960150000	49.15	598.727	659.553	772.924	663.845	871.562	625.615	570.995	517.381	637.677	771.523	825.982	1161.131	925.618	871.71	771.177	588.971	616.883	584.471	839.965	1005.613	1040.776	949.407	787.832	659.69	592.89	961.302	840.557	946.628	917.371	849.549	817.075	626.453	480.343	575.307	726.04	792.686	799.561	709.842
990050000	49.64	602.716	651.331	776.964	770.433	842.973	664	578.701	499.567	668.132	770.653	851.307	1257.289	905.601	940.772	843.836	562.423	675.757	625.573	823.171	988.65	1061.64	1019.092	777.166	732.993	621.902	996.829	879.465	998.95	996.027	835.526	829.976	618.435	502.45	598.537	759.502	865.341	790.905	671
990150000	49.64	629.89	663.209	736.316	765.56	863.81	698.936	582.538	482.229	708.951	769.124	871.949	1250.624	960.385	943.062	824.974	578.207	616.438	655.156	854.338	1014.943	1090.141	1052.082	817.708	649.18	590.22	986.506	844.018	962.202	955.66	878.77	827.826	633.99	470.176	618.96	796.646	854.669	827.29	705.069
1020050000	50.11	651.339	741.436	880.382	778.618	878.528	703.336	587.682	516.556	691.486	806.41	845.731	1293.281	993.009	1020.607	877.513	637.45	649.352	617.251	893.947	1023.912	1123.315	1082.771	895.124	772.116	680.365	1034.442	940.437	998.958	971.546	830.282	874.132	620.821	551.553	627.603	787.9	886.401	832.082	753.973
1020150000	50.11	645.906	715.017	863.707	838.476	866.116	666.991	585.321	474.706	711.43	746.002	873.198	1289.968	1009.347	1013.843	925.685	658.224	709.3	637.28	925.004	1051.915	1131.557	1089.493	854.736	717.856	605.157	1045.969	931.491	1025.647	960.164	900.663	908.708	643.886	530.352	655.474	816.673	869.196	806.723	760.221
1050050000	50.61	631.183	707.978	863.638	832.766	893.792	715.414	617.926	568.134	715.979	841.88	843.94	1315.077	1038.436	991.714	849.747	684.094	682.926	683.874	910.332	1064.836	1170.172	1030.694	935.677	763.312	660.78	1037.779	924.895	1101.9	1011.338	874.507	889.682	630.536	548.579	677.056	767.369	876.32	902.043	806.951
1050150000	50.61	662.468	710.403	949.642	823.804	881.766	672.215	608.416	551.242	694.982	790.298	889.702	1320.653	1066.284	1072.317	944.438	657.577	709.826	700.652	894.544	1032.728	1134.087	1047.675	894.164	698.548	625.563	1065.864	968.376	1097.445	1004.268	834.088	926.079	617.342	534.043	635.603	782.431	885.82	863.869	810.759
1080050000	51.16	654.154	728.362	922.658	848.201	887.531	698.254	652.333	517.259	773.08	838.507	960.16	1310.223	1125.772	1079.101	971.353	744.284	739.15	739.352	1013.792	1128.108	1194.574	1039.906	953.101	755.388	665.825	1117.045	980.6	1145.422	1068.312	898.724	886.506	623.355	588.311	663.421	762.462	853.593	917.512	815.417
1080150000	51.16	666.913	736.536	966.176	834.934	917.225	688.361	638.16	528.104	753.512	832.915	981.927	1326.369	1192.995	1097.418	999.06	710.084	715.305	669.857	978.037	1093.314	1182.555	1047.524	947.148	735.991	673.937	1125.74	994.779	1148.996	1024.454	888.549	930.324	646.176	553.173	655.862	812.555	878.052	927.28	843.942
1110050000	51.65	756.08	781.159	915.169	843.903	939.865	722.684	627.4	528.619	793.885	832.316	924.295	1346.726	1265.408	1071.94	1019.004	720.697	738.498	769.033	1030.2	1143.689	1287.87	1065.832	1000.099	776.657	691.818	1150.986	1061.535	1244.064	1062.03	930.135	991.002	677.37	602.787	659.278	847.969	848.351	925.002	906.359
1110150000	51.66	707.454	758.802	970.767	886.651	931.836	718.613	677.318	548.185	770.541	819.584	927.553	1377.701	1307.257	1067.482	948.851	790.526	805.464	753.996	1036.615	1162.809	1227.499	1078.291	984.826	774.775	680.558	1170.477	1001.755	1230.131	1068.335	876.175	933.419	718.769	586.427	719.402	810.754	886.349	928.52	888.526
1140050000	52.15	687.44	804.845	958.289	883.641	888.962	717.595	718.055	570.526	780.782	892.114	948.404	1405.503	1314.944	1091.845	1020.398	751.736	752.8	797.932	1050.788	1197.641	1272.528	1105.042	1011.744	775.097	704.731	1107.979	1019.525	1236.634	1159.749	947.619	932.146	685.246	572.945	672.571	826.661	866.672	937.865	891.615
1140150000	52.15	724.073	809.547	993.04	898.753	906.609	706.697	630.541	539.387	750.732	907.765	966.098	1406.879	1410.257	1079.975	989.677	813.024	813.252	797.275	1063.126	1221.366	1312.228	1075.795	1023.712	731.979	746.598	1155.163	1066.944	1227.125	1125.306	888.817	925.083	689.738	586.461	665.87	806.573	897.938	943.856	923.775
1170050000	52.68	703.672	793.752	1046.902	889.651	933.92	786.569	680.911	591.553	778.644	865.598	953.182	1462.966	1420.786	1003.226	1005.583	771.226	761.912	844.78	1060.542	1202.594	1245.901	1089.553	980.97	735.343	736.974	1192.7	1034.712	1349.345	1210.165	933.756	967.808	761.311	603.268	650.696	786.697	883.988	877.017	941.922
1170150000	52.68	724.805	833.477	986.216	867.85	929.074	777.064	678.038	580.79	785.214	877.193	941.298	1399.527	1436.918	1105.694	1042.8	775.935	769.79	853.293	1061.754	1270.051	1274.395	1109.677	990.777	773.546	740.71	1211.719	1050.36	1305.066	1164.625	939.838	907.717	699.036	555.914	633.392	876.188	891.531	940.957	914.993
1200050000	53.13	718.672	851.414	969.5	826.794	949.912	856.285	692.323	602.578	768.251	854.876	953.729	1429.095	1452.312	1029.876	1021.751	787.796	766.06	893.443	1106.534	1275.698	1295.093	1093.107	1032.594	713.333	861.942	1205.585	998.115	1344.811	1220.928	995.728	915.836	705.259	575.256	710.963	829.996	880.099	914.054	929.871
1200150000	53.13	732.688	903.314	1041.447	887.272	969.57	798.257	710.349	594.921	786.395	854.083	962.062	1411.498	1548.13	1069.843	1073.002	770.707	760.657	848.593	1135.481	1359.604	1273.116	1130.111	1028.114	741.714	779.741	1243.401	975.028	1294.181	1206.529	1016.444	867.354	711.775	585.288	637.392	855.033	821.041	940.052	911.604
1230050000	53.67	795.067	919.129	1058.88	877.099	1061.419	887.52	644.187	657.875	828.8	918.197	983.085	1403.939	1518.411	1087.673	1012.819	707.385	785.929	912.018	1123.768	1425.793	1276.812	1195.013	1020.087	752.785	889.946	1335.81	1030.294	1278.848	1319.355	1022.67	879.733	720.228	632.888	690.968	902.991	842.688	937.275	936.59
1230150000	53.67	822.165	885.73	1090.92	858.043	1004.404	867.336	620.536	662.123	787.309	873.278	960.044	1402.636	1486.396	1028.397	1083.757	809.611	748.836	939.059	1148.941	1395.678	1304.998	1255.141	991.481	723.686	889.028	1374.996	1072.25	1275.969	1254.62	1082.75	936.209	735.381	581.127	674.405	947.124	824.202	941.987	951.254
1260050000	54.18	843.615	1006.161	1079.829	881.483	1145.013	940.33	714.239	738.602	762.51	873.485	1039.342	1398.109	1452.004	1008.493	990.279	707.536	759.276	920.703	1126.493	1558	1355.725	1308.577	955.377	746.913	986.058	1473.002	1047.511	1259.532	1508.498	1052.404	867.134	734.878	584.663	691.923	962.29	929.043	934.684	931.822
1260150000	54.18	891.729	970.24	1115.373	882.628	1136.766	979.819	658.364	766.638	757.543	863.367	1041.451	1445.201	1480.081	962.646	976.479	742.772	775.562	898.998	1188.8	1645.219	1372.319	1299.476	962.535	750.82	1024.488	1488.533	1035.616	1289.563	1449.852	1102.701	865.441	758.345	545.994	698.114	948.157	912.552	938.563	984.924
1290050000	54.69	935.894	1136.73	1121.638	974.761	1367.503	1142.911	692.043	819.82	780.687	886.294	1130.544	1348.724	1458.357	942.696	954.628	700.663	772.31	884.956	1227.328	1716.799	1407.776	1452.407	916.665	699.506	1087.332	1571.469	1033.793	1246.933	1733.776	1139.385	841.958	759.329	624.176	649.354	1037.872	977.614	1070.484	942.967
1290150000	54.69	954.954	1148.046	1107.707	993.987	1348.089	1099.976	704.919	777.812	774.401	841.854	1123.215	1381.292	1466.287	1026.679	944.14	690.041	740.871	847.59	1243.526	1673.938	1412.855	1475.474	921.89	768.116	1062.241	1509.376	1079.863	1232.254	1740.133	1095.36	808.19	811.648	562.559	675.418	1058.146	941.992	1022.174	984.011
1320050000	55.19	1076.151	1465.187	1110.411	1035.417	1670.865	1250.502	753.964	878.965	773.807	868.118	1417.293	1362.452	1375.264	940.166	938.002	699.639	764.383	806.919	1389.621	1758.624	1582.34	1514.948	906.286	715.433	1143.019	1630.457	1184.575	1292.788	2058.355	1206.436	847.502	916.694	600.424	672.952	1186.352	1050.043	1047.374	960.116
1320150000	55.19	1102.633	1428.743	1101.891	1058.287	1664.118	1260.88	671.378	856.711	787.644	880.446	1427.893	1393.677	1362.135	914.644	921.47	723.219	789.469	799.795	1357.179	1753.108	1496.267	1488.987	884.513	757.09	1149.986	1695.752	1149.101	1240.468	2045.97	1207.503	792.172	854.049	615.96	688.558	1145.976	1066.599	1052.991	972.612
1350050000	55.72	1181.862	1564.294	1146.011	1106.641	1766.215	1370.429	755.837	877.621	773.253	960.302	1591.676	1510.561	1279.888	957.843	1002.085	682.224	729.424	842.659	1494.621	1746.532	1590.101	1432.583	887.442	773.962	1113.145	1758.504	1419.445	1392.222	2223.162	1312.297	867.889	1001.241	671.176	693.696	1338.511	1259.281	1169.404	901.944
1350150000	55.71	1256.181	1538.712	1095.964	1105.603	1810.314	1376.206	763.105	927.183	757.872	953.075	1610.893	1528.359	1296.823	941.65	939.204	684.087	715.326	819.366	1508.564	1769.682	1623.277	1448.627	878.692	702.655	1078.9	1715.992	1412.839	1395.644	2237.468	1294.442	863.119	998.609	665.023	658.323	1321.208	1294.351	1164.822	913.964
1380050000	56.17	1251.307	1581.281	1107.098	1094.321	1795.792	1348.144	786.943	886.188	820.802	924.383	1665.711	1770.403	1264.44	943.4	1006.409	678.673	729.779	781.029	1451.295	1724.299	1618.192	1478.786	937.341	810.038	1045.713	1716.558	1596.535	1631.798	2367.724	1542.888	916.737	1095.539	718.228	686.934	1505.827	1578.769	1279.69	1071.094
1380150000	56.17	1226.326	1596.442	1047.491	1113.3	1849.573	1363.392	774.684	902.016	832.883	869.682	1683.633	1747.549	1230.89	946.474	986.979	668.036	694.762	839.222	1476.527	1678.767	1630.344	1388.996	929.957	789.809	1008.979	1712.025	1568.835	1577.921	2338.11	1558.72	937.769	1050.166	757.986	734.841	1477.168	1568.523	1344.026	1056.267
1410050000	56.69	1173.177	1557.157	1045.711	1037.364	1739.535	1333.591	838.522	899	810.909	863.55	1575.665	1971.782	1188.762	899.48	1075.491	700.207	650.864	755.509	1418.578	1581.228	1571.265	1349.287	1056.864	955.485	981.079	1668.267	1566.575	1723.462	2344.525	1855.971	970.259	1104.578	842.85	857.048	1482.533	1718.376	1392.701	1025.35
1410150000	56.69	1155.507	1525.431	1040.8	1024.369	1726.128	1359.084	798.194	858.387	828.636	877.481	1583.398	1958.231	1171.944	895.915	1089.647	626.781	670.762	767.209	1383.664	1605.753	1559.201	1358.405	1007.753	950.267	1034.516	1679.223	1638.39	1717.486	2318.913	1824.796	1023.059	1118.58	833.631	885.495	1471.865	1755.165	1496.895	1060.318
1440050000	57.2	1130.089	1523.124	1006.144	985.489	1642.909	1272.25	877.199	828.071	807.959	814.179	1571.173	1914.546	1154.576	888.683	1188.96	692.892	614.174	745.784	1296.701	1507.643	1514.371	1286.977	1144.316	1163.097	936.292	1551.523	1481.36	1701.426	2242.99	2051.377	1206.298	1077.114	796.767	1086.905	1460.248	1791.182	1353.189	1053.483
1440150000	57.2	1064.667	1494.848	965.938	942.155	1656.499	1268.166	865.522	882.27	804.352	800.59	1520.113	1862.701	1166.732	842.282	1135.751	694.757	650.126	754.524	1309.46	1517.687	1479.321	1290.367	1076.986	1147.811	927.909	1579.734	1513.926	1661.64	2332.759	2081.994	1255.834	1023.56	813.256	1078.86	1462.734	1818.95	1444.693	1100.425
1470050000	57.71	1075.138	1425.421	950.029	971.964	1590.168	1283.157	884.696	789.433	802.418	749.71	1529.298	1813.022	1219.557	798.855	1236.117	768.822	636.536	759.852	1190.825	1450.525	1469.611	1262.612	1132.746	1315.792	906.706	1466.132	1433.306	1599.73	2253.416	2036.674	1473.545	1014.171	766.928	1302.648	1440.365	1680.118	1281.791	1025.568
1470150000	57.71	1109.197	1451.891	937.911	919.766	1643.006	1275.241	873.878	786.692	782.492	741.748	1507.745	1783.93	1164.823	824.391	1154.249	715.981	640.107	735.786	1254.02	1465.991	1449.625	1223.48	1120.566	1321.842	955.484	1440.072	1405.324	1572.218	2222.104	2073.941	1413.719	1020.451	801.231	1333.614	1431.341	1703.304	1308.839	999.013
1500050000	58.21	1097.56	1368.072	907.66	915.926	1549.827	1170.974	854.596	733.523	736.584	698.655	1437.538	1713.468	1182.312	878.456	1197.987	700.81	639.564	737.934	1189.389	1381.057	1415.594	1172.893	1168.688	1322.721	892.57	1432.326	1343.879	1510.9	2111.106	2040.554	1540.713	926.067	788.242	1479.418	1319.378	1649.851	1276.243	1012.924
1500150000	58.22	1050.39	1385.566	926.907	886.176	1572.775	1149.575	850.553	756.172	709.103	691.89	1470.82	1690.944	1240.046	866.414	1138.481	709.517	599.44	725.509	1120.035	1384.564	1402.897	1104.237	1154.714	1321.912	824.944	1465.696	1340.243	1484.663	2151.211	2043.969	1535.462	967.288	744.504	1425.786	1335.823	1659.886	1278.462	985.167
1530050000	58.72	1010.028	1357.438	890.34	828.005	1537.899	1124.557	785.055	716.703	652.014	640.495	1365.064	1653.456	1103.084	978.737	1161.591	693.007	562.55	717.355	1079.707	1309.247	1366.031	1136.281	1211.428	1242.409	870.794	1372.746	1290.827	1392.455	2103.584	2018.594	1613.006	974.29	709.023	1515.646	1319.916	1542.674	1212.359	895.334
1530150000	58.72	1053.161	1320.209	820.82	885.29	1495.884	1141.976	823.828	696.461	718.792	646.824	1429.102	1575.007	1178.378	934.468	1128.411	740.829	549.183	725.359	1125.98	1318.309	1372.033	1163.631	1256.304	1324.998	856.514	1328.628	1311.584	1430.218	2079.124	2013.084	1522.296	985.997	710.55	1487.05	1339.686	1569.081	1242.929	961.143
1560050000	59.25	1002.252	1304.279	843.502	833.623	1476.766	1153.352	805.526	670.515	604.179	603.738	1273.924	1657.514	1077.086	1207.894	1058.681	636.591	585.093	755.302	1050.878	1294.09	1283.087	1184.696	1195.335	1212.957	841.458	1279.254	1245.477	1346.634	2036.66	1933.463	1468.597	928.997	643.193	1385.008	1313.332	1610.44	1229.86	889.933
1560150000	59.25	1008.45	1328.37	865.478	856.013	1491.244	1106.805	791.789	658.654	640.965	604.207	1297.685	1553.449	1033.478	1193.288	1080.415	658.248	603.6	718.637	1078.845	1284.604	1309.186	1181.124	1185.211	1199.095	835.43	1293.607	1250.567	1310.827	1997.464	1932.76	1494.211	917.259	700.331	1429.873	1310.427	1568.205	1207.323	867.267
1590050000	59.73	1004.901	1295.336	803.144	757.542	1399.499	1168.153	776.529	693.847	632.276	621.964	1236.06	1501.844	957.214	1299.277	1009.434	606.344	602.121	832.969	1034.13	1257.26	1227.594	1183.447	1213.404	1224.281	799.016	1273.552	1210.241	1272.609	1986.154	1859.137	1461.385	957.526	647.15	1284.603	1319.259	1508.612	1164.265	864.454
1590150000	59.73	961.833	1298.85	835.596	801.959	1384.724	1068.327	756.651	630.128	651.778	625.414	1241.251	1435.01	996.694	1327.273	1026.557	603.637	583.69	779.064	1018.672	1268.544	1176.538	1194.019	1195.491	1246.565	845.568	1267.364	1234.161	1269.318	1970.721	1893.522	1417.409	857.21	626.055	1285.667	1294.018	1438.124	1226.454	862.254
1620050000	60.22	927.585	1231.682	787.84	760.616	1381.726	1023.996	681.438	572.251	589.802	579.335	1174.935	1445.575	919.855	1315.553	985.994	554.175	667.5	833.588	1036.843	1237.364	1162.346	1117.937	1098.556	1190.047	879.9	1280.45	1201.732	1286.262	1950.924	1868.781	1365.858	871.679	609.706	1310.955	1239.016	1512.938	1206.841	845.601
1620150000	60.22	908.833	1252.421	765.882	841.588	1410.52	1054.075	692.098	639.414	579.432	566.128	1222.522	1424.292	937.476	1348.708	964.913	579.719	679.1	891.062	1043.861	1217.576	1202.335	1137.25	1172.389	1165.752	808.126	1285.649	1145.336	1196.748	1959.759	1819.672	1399.755	894.495	607.96	1296.526	1226.522	1479.328	1187.187	814.051
1650050000	60.76	881.484	1197.222	718.436	736.794	1358.139	1038.717	706.438	614.237	613.387	583.694	1173.78	1363.226	816.448	1262.505	955.398	559.05	826.736	837.859	1018.9	1230.873	1151.613	1221.151	1107.408	1136.714	865.439	1282.012	1201.153	1226.247	1940.295	1820.95	1375.13	889.023	616.334	1261.77	1241.987	1489.479	1121	823.116
1650150000	60.77	897.103	1183.1	707.796	747.87	1312.337	1009.031	696.299	560.439	579.411	590.682	1187.429	1346.041	828.037	1255.116	943.747	560.678	810.843	831.443	933.375	1254.233	1188.48	1197.218	1047.146	1170.579	840.563	1253.857	1170.056	1218.561	1912.878	1849.909	1373.32	844.35	606.922	1339.109	1210.358	1504.409	1184.237	814.372
1680050000	61.25	875.252	1149.102	735.26	724.257	1282.566	1049.234	677.158	563.305	598.94	581.671	1164.496	1332.609	805.236	1231.311	870.723	486.305	825.086	834.315	999.452	1218.684	1147.321	1144.166	1054.207	1208.369	787.981	1323.163	1187.901	1225.896	1887.572	1767.573	1336.5	888.205	610.801	1248.056	1242.863	1434.477	1166.194	794.118
1680150000	61.26	840.647	1161.797	703.673	706.779	1319.366	1007.204	632.792	546.084	635.796	591.923	1147.098	1320.786	808.28	1189.108	861.657	566.327	878.124	814.174	983.328	1254.136	1156.932	1108.476	950.414	1159.896	842.993	1255.107	1130.501	1228.538	1894.783	1770.156	1325.986	875.857	616.228	1299.045	1217.734	1521.705	1183.613	800.98
1710050000	61.73	792.089	1181.118	655.778	720.033	1309.048	1039.557	598.962	590.196	615.333	591.179	1095.511	1242.9	711.877	1114.362	861.147	550.615	835.738	773.874	976.957	1215.322	1167.048	1095.753	985.943	1218.437	835.278	1218.529	1195.755	1227.062	1905.209	1757.274	1313.372	853.58	580.726	1264.574	1207.701	1441.688	1135.082	835.494
1710150000	61.73	864.963	1133.488	679.827	662.944	1228.192	991.631	622.794	540.035	546.362	589.424	1106.173	1252.48	753.049	1098.275	776.272	519.303	823.16	775.313	947.061	1295.314	1180.025	1185.876	985.108	1150.426	823.388	1238.155	1158.535	1144.43	1909.053	1719.99	1286.326	898.617	563.141	1267.563	1194.639	1457.093	1104.376	822.241
1740050000	62.27	819.846	1125.954	705.398	686.863	1311.693	1079.06	629.703	564.496	612.65	568.647	1124.333	1212.117	710.835	1078.609	833.555	479.812	765.431	814.61	1022.287	1258.339	1189.041	1115.304	948.26	1096.842	885.18	1213.919	1159.505	1218.886	1683.078	1816.954	1271.743	814.311	662.559	1198.182	1201.998	1475.203	1127.065	834.488
1740150000	62.27	796.117	1154.479	687.622	703.728	1247.183	1011.527	619.706	538.289	592.364	579.408	1095.536	1231.83	704.341	1078.723	800.904	479.584	809.167	751.993	936.159	1264.548	1158.721	1093.511	990.98	1122.035	871.35	1239.537	1204.561	1196.549	1667.5	1775.865	1274.48	846.767	612.147	1169.328	1266.383	1492.016	1090.966	843.684
1770050000	62.77	730.945	1138.222	652.28	646.651	1212.65	1034.929	551.12	520.417	582.728	603.72	1056.734	1191.379	680.501	1052.59	750.645	527.974	770.3	742.042	976.44	1258.223	1152.232	1129.834	996.404	1196.184	792.918	1246.366	1222.318	1206.857	1575.844	1794.779	1239.64	869.137	610.865	1191.056	1192.246	1460.428	1109.437	831.312
1770150000	62.78	782.761	1099.695	636.929	696.402	1274.301	1035.04	497.77	534.237	595.527	600.195	1075.636	1126.296	736.515	1037.257	769.457	520.796	815.412	733.696	982.226	1238.502	1134.869	1107.585	982.734	1180.773	840.224	1217.097	1203.054	1270.487	1629.241	1793.213	1277.933	862.868	595.167	1313.058	1224.677	1474.037	1234.194	831.294
1800050000	63.25	752.567	1070	680.698	682.598	1269.722	1007.449	593.957	467.986	605.665	596.882	1004.458	1140.925	690.618	983.501	744.528	477.149	784.738	702.733	964.735	1243.998	1145.054	1180.623	946.907	1119.572	845.322	1191.424	1174.28	1174.541	1574.892	1740.779	1223.607	844.135	649.804	1261.714	1227.297	1424.095	1142.039	826.499
1800150000	63.25	787.876	1078.2	647.324	692.254	1174.495	1006.458	555.835	486.109	618.675	535.675	1022.249	1148.781	717.72	1004.921	721.283	459.397	760.971	687.432	1008.994	1266.385	1129.6	1185.83	1001.779	1128.378	870.593	1227.355	1265.286	1228.399	1624.11	1744.118	1182.105	876.668	588.798	1188.614	1275.635	1486.783	1149.4	789.904
1830050000	63.77	812.842	1139.24	650.873	636.372	1196.381	1011.033	553.031	468.191	651.658	623.854	995.898	1097.5	649.373	981.95	749.589	476.368	737.383	709.767	1021.813	1349.535	1182.631	1187.629	932.734	1114.14	867.743	1222.006	1265.427	1208.397	1562.333	1760.851	1186.656	899.08	621.13	1219.693	1171.633	1469.469	1175.09	922.385
1830150000	63.77	776.947	1136.678	685.76	686.896	1227.608	1075.547	521.842	490.485	655.903	592.838	972.229	1043.668	666.24	1025.232	692.211	486.637	769.688	656.128	1032.448	1324.016	1152.938	1201.258	935.195	1152.333	813.589	1190.888	1259.386	1274.025	1534.131	1763.549	1205.848	897.07	610.36	1180.709	1289.299	1476.771	1151.163	919.085
1860050000	64.31	742.867	1191.303	645.078	687.954	1253.482	1059.836	492.263	461.834	585.018	586.876	962.142	1105.192	664.084	931.801	722.364	512.721	731.129	686.767	1010.363	1321.101	1239.716	1228.564	971.46	1178.626	862.537	1247.934	1203.288	1304.302	1535.211	1758.236	1253.079	823.583	557.775	1177.228	1253.602	1462.368	1151.77	965.038
1860150000	64.31	784.135	1148.697	654.42	726.519	1232.648	1028.903	488.182	483.316	594.469	596.016	1014.602	1045.765	702.723	923.375	677.553	441.553	702.474	609.361	1003.523	1348.703	1157.598	1195.778	982.254	1084.147	849.68	1228.399	1215.666	1255.923	1511.918	1664.592	1272.623	856.71	595.274	1147.807	1255.221	1507.459	1159.432	921.263
1890050000	64.78	779.626	1270.885	664.687	761.751	1199.956	1044.292	464.684	479.58	620.87	576.146	976.969	1089.769	656.306	951.34	681.615	471.587	647.457	637.623	1053.128	1331.219	1196.892	1234.296	948.923	1135.553	851.986	1188.401	1204.189	1323.027	1500.572	1756.17	1160.022	870.469	598.718	1135.852	1236.224	1510.043	1196.757	892.018
1890150000	64.79	815.672	1220.706	660.544	711.374	1183.676	1003.062	437.715	477.826	625.235	620.499	1018.04	1077.238	671.412	974.257	675.921	441.183	645.876	632.78	1042.725	1345.219	1188.789	1243.644	1019.099	1067.941	856.049	1195.686	1327.487	1321.385	1466.635	1701.23	1232.694	877.637	696.438	1236.693	1286.776	1522.132	1168.262	852.483
1920050000	65.3	758.906	1264.163	640.291	708.402	1242.716	1083.199	466	476.392	550.94	597.852	936.722	1056.765	680.354	946.822	673.07	473.288	656.1	625.767	1073.42	1182.486	1213.789	1279.537	892.487	1144.418	891.596	1246.052	1316.69	1237.746	1474.432	1698.874	1158.095	901.352	592.971	1093.643	1313.573	1531.725	1233.551	951.325
1920150000	65.3	779.31	1247.773	642.138	652.601	1242.301	1023.699	463.146	468.316	551.79	608.521	945.258	1090.753	693.942	962.308	638.904	495.375	652.724	664.504	1063.792	1234.304	1162.708	1224.88	957.842	1125.513	879.549	1187.017	1288.644	1239.958	1457.586	1726.743	1130.828	880.813	617.262	1147.648	1280.157	1623.277	1231.226	949.846
1950050000	65.78	759.931	1267.074	647.316	701.883	1237.208	1062.586	477.804	447.482	585.632	560.795	947.149	1030.946	661.257	916.308	649.947	456.594	645.607	572.725	1072.385	1271.134	1257.242	1215.308	993.718	1085.118	830.014	1214.833	1178.511	1274.266	1494.907	1748.107	1189.83	844.117	631.677	1189.18	1402.016	1526.037	1186.686	952.828
1950150000	65.78	695.119	1237.298	586.616	701.107	1237.181	1082.584	428.478	429.657	586.066	595.128	907.591	1060.279	699.48	927.089	635.062	413.531	643.793	582.848	1057.01	1264.334	1220.046	1183.679	989.249	1065.307	831.037	1224.14	1177.841	1230.123	1517.791	1711.543	1149.646	886.277	637.55	1186.64	1344.427	1584.663	1187.733	968.441
1980050000	66.31	751.991	1184.965	648.998	705.949	1179.19	1082.367	436.297	451.016	634.056	582.122	914.182	1036.925	729.818	911.528	689.183	455.002	589.729	565.258	1138.065	1254.314	1212.596	1185.258	1021.615	1076.903	893.397	1217.157	1251.775	1235.414	1537.31	1762.223	1143.789	875.801	590.602	1173.029	1382.734	1582.428	1197.768	1032.212
1980150000	66.31	796.073	1236.076	691.611	709.097	1280.168	1057.845	457.605	481.482	618.749	576.101	919.044	1046.427	674.96	898.027	687.449	430.736	580.169	595.469	1146.796	1220.035	1213.35	1162.027	1017.118	971.147	826.171	1216.006	1201.837	1267.732	1527.447	1758.844	1162.899	825.715	583.467	1122.296	1334.237	1592.357	1160.08	925.294
2010050000	66.8	734.048	1190.168	718.956	668.372	1245.968	1079.268	467.978	423.61	585.564	576.343	889.015	1052.997	694.944	863.35	626.496	426.892	588.819	592.192	1151.841	1172.256	1232.946	1213.132	1041.682	987.383	896.645	1253.506	1254.543	1278.17	1513.702	1748.141	1188.743	862.51	640.735	1179.151	1400.086	1640.428	1210.178	966.514
2010150000	66.8	754.534	1257.081	705.022	694.766	1244.377	1042.951	458.06	449.477	585.541	577.588	940.642	1000.699	686.541	893.729	640.062	440.935	594.912	566.621	1092.466	1171.723	1237.698	1168.541	1080.856	994.383	868.75	1244.496	1198.203	1270.828	1528.487	1771.754	1183.277	844.148	595.876	1199.474	1411.969	1645.442	1207.746	950.526
2040050000	67.33	739.28	1217.366	714.276	691.27	1284.429	1040.476	443.897	422.97	572.339	572.089	903.358	1041.571	689.622	859.041	685.253	405.493	598.086	542.41	1102.792	1224.564	1240.46	1201.878	981.209	986.109	894.664	1250.38	1130.274	1246.175	1552.378	1709.682	1179.134	934.054	593.112	1197.209	1432.312	1616.738	1227.77	995.178
2040150000	67.34	752.511	1263.05	701.784	677.679	1239.815	1049.241	441.103	411.689	621.185	572.252	873.149	1023.301	709.264	881.155	661.253	413.625	624.624	574.537	1194.548	1250.5	1263.313	1215.748	1012.079	968.73	917.474	1252.238	1235.459	1256.963	1525.57	1645.893	1146.427	884.554	594.695	1212.955	1400.701	1658.064	1174.245	937.503
2070050000	67.87	686.427	1212.632	677.518	688.125	1239.89	1045.139	416.663	375.766	594.996	564.55	904.62	1042.604	687.588	874.05	640.909	408.034	590.948	538.302	1109.662	1345.613	1239.389	1163.727	1024.542	932.199	915.589	1406.789	1212.694	1292.478	1569.203	1634.36	1118.565	916.573	561.905	1208.325	1459.832	1681.114	1210.559	975.675
2070150000	67.87	683.472	1180.76	739.34	696.239	1225.345	1059.285	397.378	388.349	589.772	611.992	886.767	1025.279	692.765	857.708	659.764	378.567	559.171	577.529	1104.648	1274.292	1291.534	1233.094	1065.282	933.624	943.488	1323.82	1163.976	1201.401	1540.673	1636.013	1227.057	880.834	665.107	1239.378	1509.332	1641.547	1210.852	983.403
2100050000	68.37	686.025	1207.366	733.924	642.326	1258.808	1037.418	468.883	390.248	608.082	570.422	885.647	1028.631	717.954	851.915	654.785	392.135	582.321	523.963	1128.613	1120.057	1301.963	1165.614	1002.241	964.608	929.437	1379.39	1164.366	1245.405	1519.285	1585.507	1204.955	857.101	618.671	1183.574	1447.852	1595.742	1173.024	960.281
2100150000	68.38	661.523	1213.73	734.838	635.595	1194.987	1034.29	456.744	409.215	589.302	546.452	880.585	1018.852	727.886	867.337	621.283	383.084	551.857	519.467	1068.501	1113.104	1269.362	1140.285	947.978	952.378	864.157	1420.638	1150.628	1308.971	1542.671	1572.013	1146.996	834.021	576.746	1148.937	1454.62	1610.971	1181.323	958.955
2130050000	68.86	695.372	1240.784	773.522	664.372	1209.665	1014.934	447.074	381.142	603.012	563.247	836.529	1059.02	706.732	869.327	615.909	383.375	527.693	567.72	1110.646	1147.814	1264.162	1202.44	947.586	971.485	894.657	1438.397	1163.282	1206.832	1505.051	1567.897	1197.862	859.72	548.484	1243.593	1426.305	1647.45	1167.901	913.294
2130150000	68.87	697.897	1217.172	689.373	635.565	1204.107	995.394	425.498	377.035	582.689	599.051	819.26	1052.039	726.49	868.745	577.317	393.731	552.581	505.088	1028.314	1137.514	1285.029	1223.633	935.122	973.253	872.605	1352.343	1120.66	1221.682	1518.895	1639.766	1206.783	798.197	596.334	1215.423	1424.166	1604.558	1157.153	925.947
2160050000	69.34	700.289	1226.843	761.364	618.789	1292.413	966.33	428.084	380.896	585.366	591.868	790.744	1147.93	738.937	993.894	639.577	393.519	539.762	543.689	1169.477	1151.482	1318.598	1136.126	959.185	961.856	829.893	1403.072	1127.598	1217.266	1456.152	1462.286	1175.119	824.062	546.268	1271.212	1434.398	1640.337	1182.727	973.61
2160150000	69.34	700.945	1234.185	766.736	617.109	1219.827	1002.639	448.988	361.357	539.432	589.024	826.735	1170.855	714.329	935.793	609.845	413.315	485.098	504.844	1110.285	1077.21	1280.613	1186.514	947.564	960.645	871.855	1388.267	1151.779	1244.518	1450.006	1510.893	1150.951	870.119	580.666	1262.537	1442.845	1629.508	1155.837	944.635
2190050000	69.86	699.489	1256.076	748.256	606.242	1238.297	968.628	445.323	388.283	551.574	596.099	783.005	1122.731	720.308	952.538	639.889	374.575	492.874	510.901	1076.474	1136.8	1209.58	1201.581	889.813	944.017	876.299	1350.932	1079.107	1207.191	1598.88	1477.743	1130.083	819.508	583.605	1389.698	1447.425	1562.95	1133.845	941.16
2190150000	69.86	792.333	1260.704	717.813	592.005	1258.375	967.06	428.67	369.616	575.021	576.856	796.115	1136.607	738.34	944	603.464	393.93	502.56	560.515	1173.562	1135.942	1218.776	1175.792	922.639	953.683	862.979	1413.572	1064.038	1266.337	1532.812	1534.093	1116.202	801.28	637.271	1406.881	1385.263	1592.804	1163.359	995.16
2220050000	70.35	777.346	1251.063	730.511	609.69	1264.331	969.571	428.727	319.139	514.091	513.69	745.053	1114.594	752.208	907.13	639.272	388.257	538.169	569.026	1130.835	1081.712	1261.097	1192.126	954.738	923.766	885.159	1412.411	1040.594	1210.05	1487.086	1480.829	1059.69	810.187	613.775	1347.077	1366.637	1597.519	1173.273	947.779
2220150000	70.35	758.459	1260.209	747.522	668.857	1232.844	1000.553	450.237	362.294	507.901	561.844	775.082	1143.498	685.646	909.114	674.072	369.325	513.519	536.328	1103.44	1150.772	1263.679	1189.096	978.44	928.66	878.385	1395.066	1069.917	1200.62	1542.688	1481.676	1091.957	851.979	573.392	1364.81	1312.133	1514.519	1121.335	932.439
2250050000	70.89	753.326	1200.834	775.589	621.616	1297.722	960.093	425.103	362.512	483.708	554.481	733.513	1130.434	715.912	1004.944	598.015	361.224	534.924	505.808	1121.096	1117.85	1218.693	1155.876	951.197	910.272	906.313	1379.081	1063.143	1205.603	1446.975	1451.57	1030.377	805.373	640.159	1390.609	1361.584	1553.295	1241.252	933.581
2250150000	70.9	818.755	1239.425	783.64	642.786	1250.423	883.768	433.077	366.708	523.77	572.154	812.258	1094.119	707.82	920.996	623.157	386.796	492.54	508.793	1143.927	1083.767	1178.64	1190.26	924.966	940.496	908.264	1402.5	1080.056	1180.04	1515.2	1456.114	1028.563	836.433	650.573	1350.717	1320.341	1582.649	1228.686	952.39
2280050000	71.37	691.25	1310.035	810.556	645.29	1249.752	861.217	419.943	374.286	484.247	557.164	789.409	1081.828	724.844	904.17	651.268	386.139	532.662	525.714	1097.739	1119.09	1214.021	1206.451	949.43	971.494	900.133	1387.271	1028.352	1198.74	1439.555	1478.16	1036.04	811.731	628.905	1384.362	1363.301	1563.713	1294.484	941.354
2280150000	71.38	695.523	1228.9	777.453	623.127	1238.429	885.903	434.694	334.643	510.302	562.473	721.284	1107.997	690.594	921.561	654.962	446.613	506.255	533.96	1130.499	1125.578	1200.389	1140.589	958.264	991.704	836.755	1381.271	1066.781	1250.499	1498.207	1473.143	1028.269	758.083	615.726	1397.18	1353.279	1562.229	1274.871	916.884
2310050000	71.88	642.429	1280.935	775.916	576.817	1183.971	869.978	490.079	341.199	509.698	589.868	706.576	1112.908	723.59	902.952	659.132	356.288	492.474	462.716	1139.666	1061.389	1186.296	1125.05	916.753	1011.106	893.259	1360.64	984.123	1206.432	1507.281	1376.81	1000.569	788.202	660.36	1352.5	1262.509	1521.488	1177.6	959.65
2310150000	71.88	705.612	1263.841	778.544	632.763	1175.038	853.876	488.541	371.095	535.054	583.99	754.962	1102.648	708.59	936.056	643.396	382.688	531.467	483.518	1072.224	1092.781	1206.867	1143.994	923.456	1019.894	882.063	1377.911	1072.926	1264.48	1470.625	1482.194	992.897	786.215	652.15	1307.807	1247.511	1559.388	1211.237	911.412
2340050000	72.38	639.044	1260.837	780.696	599.802	1172.924	887.292	453.414	344.063	516.545	556.858	735.231	1081.98	708.949	1028.466	599.36	363.476	489.664	478.608	1100.505	1159.56	1197.582	1120.436	975.621	945.485	910.222	1370.57	1038.314	1237.158	1495.747	1419.457	1082.219	752.974	678.646	1306.339	1273.049	1533.118	1228.204	994.875
2340150000	72.38	654.053	1245.02	715.144	568.486	1235.602	856.288	525.758	344.842	553.344	579.627	739.74	1106.616	704.741	993.708	596.136	408.377	514.902	427.518	1093.668	1192.56	1229.166	1206.585	971.895	993.066	921.25	1394.944	1054.197	1216.335	1506.15	1431.562	1022.599	836.541	650.196	1387.32	1249.916	1499.043	1212.652	1059.73
2370050000	72.91	641.399	1221.065	793.836	623.305	1091.931	836.496	445.888	390.869	531.877	579.233	736.233	846.636	689.268	981.892	614.285	400.541	495.874	449.896	1111.505	1167.966	1245.602	1100.868	950.854	972.667	946.834	1391.872	985.821	1725.102	1150.793	1340.674	1013.757	779.262	572.187	1288	1263.135	1651.016	1214.161	1007.746
2370150000	72.91	667.757	1238.843	741.224	638.891	1124.89	845.58	519.268	339.008	533.986	614.083	695.058	841.628	727.469	961.05	609.194	382.805	481.64	469.716	1121.538	1134.767	1194.273	1116.449	932.915	961.624	922.829	1369.017	940.59	1710.669	1176.202	1367.945	1036.389	745.694	582.715	1332.757	1198.836	1591.246	1194.316	1047.08
2400050000	73.42	634.963	1269.625	774.864	646.402	1119.251	813.898	469.545	391.842	551.021	565.481	652.573	851.546	748.58	1002.137	627.581	392.183	472.807	398.861	1043.01	1105.862	1120.101	1097.88	986.105	945.021	908.853	1337.329	937.219	1769.773	1126.485	1362.196	1029.672	791.083	598.271	1273.481	1231.794	1485.981	1247.849	1003.314
2400150000	73.42	605.067	1236.327	777.969	566.585	1060.728	860.281	475.256	372.926	504.51	598.308	700.053	832.369	759.091	990.186	655.247	363.01	514.317	439.28	1035.831	1088.187	1139.629	1105.423	935.266	983.272	930.421	1376.457	957.92	1733.208	1166.589	1367.48	1013.004	789.295	623.833	1305.545	1259.272	1554.857	1201.976	1035.944
2430050000	73.9	615.991	1207.586	785.047	743.733	1078.194	818.504	452.158	343.259	541.395	550.036	662.271	966.687	767.1	1037.741	628.785	408.517	474.99	429.167	1061.057	1127.954	1142.495	1095.115	885.633	924.799	938.138	1339.808	1070.72	1729.653	1140.968	1356.36	1024.083	758.244	522.821	1253.648	1315.686	1571.965	1233.966	1016.528
2430150000	73.9	606.317	1249.861	749.871	817.031	1192.512	832.644	470.124	311.485	471.903	539.834	671.662	967.806	770.159	975.652	587.626	387.12	465.4	448.11	983.153	1147.67	1140.576	1089.893	930.734	879.3	858.993	1314.672	1089.865	1727.842	1149.791	1372.636	1030.488	788.021	574.957	1290.643	1236.728	1563.736	1206.998	1015.891
2460050000	74.41	612.126	1213.179	771.607	772.896	1118.291	775.42	485.117	316.736	492.031	565.86	667.62	1006.719	774.641	930.422	577.887	357.572	472.481	468.714	1074.864	1153.156	1109.832	1205.411	903.639	894.026	870.012	1329.13	1034.803	1713.383	1183.922	1415.213	984.304	678.422	545.792	1334.341	1273.768	1496.037	1243.71	1021.062
2460150000	74.42	615.032	1230.656	747.893	767.644	1071.324	825.628	434.617	318.512	545.06	574.087	663.725	952.107	769.898	969.573	602.298	400.993	463.464	480.183	1107.226	1135.212	1110.387	1278.895	896.854	945.213	922.556	1354.016	1030.672	1727.8	1160.909	1382.703	1064.263	688.606	488.51	1338.778	1242.845	1491.572	1252.286	940.976
2490050000	74.91	578.342	1209.756	742.993	809.532	1070.067	829.783	460.888	316.763	503.134	519.422	639.496	981.862	770.762	986.629	576.615	364.88	454.25	418.322	1084.124	1194.431	1101.642	1229.025	897.769	924.378	852.755	1271.267	1068.014	1709.01	1125.289	1427.097	986.144	718.541	495.49	1303.77	1268.511	1380.326	1225.245	989.129
2490150000	74.91	592.498	1232.272	781.476	805.354	1073.916	781.27	479.179	332.316	457.615	584.832	685.289	893.267	766.702	993.967	557.096	362.623	477.781	416.914	1090.381	1165.696	1141.899	1210.61	911.116	951.615	902.22	1241.903	1058.01	1658	1171.511	1324.149	1016.935	654.368	533.939	1329.857	1174.013	1351.221	1272.4	954.412
2520050000	75.42	608.748	1259.214	734.962	764.053	1057.575	792.967	458.146	334.42	477.119	612.351	671.891	929.767	769.128	959.24	564.768	408.207	467.574	464.04	1071.31	1093.102	1013.631	1202.686	976.225	726.34	769.565	1268.328	1050.352	1791.414	1106.599	1339.034	994.17	607.08	520.98	1240.735	1230.905	1371.49	1190.637	970.915
2520150000	75.42	671.362	1235.054	784.944	757.392	1003.638	745.717	418.244	339.447	503.021	608.84	654.489	932.692	789.865	980.114	547.885	370.536	467.324	458.971	1093.782	1095.686	1030.917	1187.696	922.511	676.972	737.269	1234.795	1036.984	1786.649	1132.812	1341.99	999.642	627.57	519.308	1252.138	1238.958	1358.056	1212.133	990.163
2550050000	75.91	615.039	1256.876	753.451	709.929	983.497	775.582	407.828	368.414	438.914	536.726	611.938	894.355	805.424	949.592	579.523	393.988	522.886	455.963	1057.888	1132.663	1073.339	1203.348	888.992	671.667	751.731	1319.275	1047.867	1840.746	1112.597	1535.531	920.704	656.811	515.594	1221.304	1235.21	1427.721	1258.325	953.958
2550150000	75.92	609.36	1203.107	801.527	771.229	1011.968	771.157	456.385	299.324	496.986	573.992	663.433	953.779	767.457	943.501	580.443	390.558	475.305	408.692	1070.923	1147.604	1046.511	1190.507	918.797	701.177	767.248	1302.961	1011.457	1815.663	1128.863	1620.998	974.318	634.119	533.945	1279.757	1279.398	1382.029	1250.335	932.506
2580050000	76.45	630.759	1265.898	751.627	799.891	990.244	836.153	437.849	318.199	467.714	514.722	596.842	913.418	751.384	920.613	612.091	368.606	504.231	439.227	1104.53	1247.173	1048.899	1301.34	889.223	704.749	768.678	1324.775	1076.04	1825.888	1136.386	1275.956	910.538	595.935	485.571	1351.712	1287.958	1367.159	1310.628	1030.73
2580150000	76.45	608.122	1218.37	795.782	754.13	1060.872	816.807	451.074	340.736	466.593	483.663	628.22	931.17	749.137	923.874	592.268	379.204	516.593	463.236	1112.56	1170.901	1039.965	1242.618	897.897	728.456	728.192	1293.041	1124.465	1840.447	1120.567	1280.798	920.482	657.158	514.654	1270.939	1196.232	1306.775	1383.288	915.425
2610050000	76.95	672.695	1022.224	753.067	747.771	1027.726	828.035	422.615	308.749	476.975	475.108	617.813	866.957	686.811	892.201	580.983	387.334	550.281	449.004	998.805	1153.071	1050.267	1288.342	873.795	693.889	737.159	1328.944	1083.304	1826.487	1148.163	1350.347	976.014	585.839	481.003	1278.854	1274.56	1327.052	1395.29	957.321
2610150000	76.95	616.2	1026.294	782.527	759.659	948.312	876.816	427.51	327.902	460.856	550.515	605.273	863.58	723.098	958.265	568.321	319.012	505.819	447.828	1053.666	1172.71	1016.733	1269.501	917.233	683.962	745.9	1291.837	1059.392	1839.767	1122.772	1235.126	938.257	601.075	521.147	1248.164	1237.266	1317.597	1375.357	978.918
2640050000	77.45	610.154	1107.373	785.578	798.496	1033.518	772.199	379.589	324.286	469.305	522.207	630.116	839.014	735.172	937.578	575.979	359.565	477.936	424.412	998.279	1128.954	1011.841	1241.983	914.28	679.929	851.203	1291.829	1070.831	1818.84	1133.369	1240.034	875.439	589.249	504.625	1200.505	1223.679	1274.138	1347.972	975.563
2640150000	77.46	620.323	982.706	791.704	788.489	1038.316	794.887	421.249	318.406	431.636	486.655	629.827	824.168	735.741	912.404	563.536	342.291	512.607	464.826	999.116	1169.892	1008.783	1257.587	890.87	683.858	830.696	1316.655	1063.759	1866.156	1119.818	1308.836	894.626	619.402	517.611	1211.05	1212.998	1259	1322.649	894.178
2670050000	77.93	583.167	1013.333	763.169	766.048	983.726	846.637	377.368	319.935	477.529	480.864	626.164	869.629	725.352	1010.344	545.051	350.416	496.193	443.079	976.454	1140.348	1031.462	1349.262	885.393	667.4	812.264	1298.928	999.851	1880.214	1112.844	1237.126	873.921	596.477	513.853	1194.574	1157.491	1284.822	1348.002	933.423
2670150000	77.94	594.97	999.641	748.7	741.254	959.478	833.228	380.292	337.104	459.955	479.077	614.484	847.111	728.954	993.124	563.606	340.361	436.536	437.511	1044.978	1161.482	1016.534	1324.53	864.473	721.026	836.939	1291.783	1031.718	1858.304	1132.426	1260.392	862.004	569.671	494.833	1248.251	1233.438	1310.151	1308.06	940.583
